PLQY measurement:
Date: 	22.03.2023 11:35:12
Peak emission wavelength (nm): 781
 PLQY = 	 	3.97E-3
absorded light fraction (%): 89
MAYA saturard: FALSE
USB2000 saturaed: FALSE
wavelength	corrected total emission spec
6.7588E+2	-1.9785E-3
6.7611E+2	1.6338E-3
6.7633E+2	-2.3724E-3
6.7655E+2	-6.0688E-4
6.7677E+2	-4.0954E-3
6.7700E+2	-1.4467E-3
6.7722E+2	-4.0231E-3
6.7744E+2	-2.2067E-3
6.7766E+2	-1.4246E-3
6.7789E+2	5.1343E-4
6.7811E+2	-2.3873E-3
6.7833E+2	3.9477E-4
6.7856E+2	-3.6490E-4
6.7878E+2	6.2106E-3
6.7900E+2	-3.2170E-3
6.7922E+2	-4.3594E-5
6.7945E+2	-5.8024E-5
6.7967E+2	-4.4893E-4
6.7989E+2	-1.4320E-3
6.8011E+2	4.1015E-3
6.8034E+2	4.0223E-3
6.8056E+2	-4.6487E-3
6.8078E+2	-2.4438E-4
6.8100E+2	1.4497E-3
6.8123E+2	-1.7194E-4
6.8145E+2	2.4172E-3
6.8167E+2	-3.7411E-3
6.8189E+2	-2.0966E-3
6.8212E+2	1.5806E-3
6.8234E+2	1.1088E-3
6.8256E+2	1.6177E-3
6.8278E+2	-6.9454E-4
6.8300E+2	1.2171E-3
6.8323E+2	-4.9446E-4
6.8345E+2	-2.1577E-3
6.8367E+2	4.5053E-4
6.8389E+2	-5.6954E-3
6.8412E+2	-2.9625E-3
6.8434E+2	-7.9890E-4
6.8456E+2	6.9959E-5
6.8478E+2	-9.7829E-4
6.8500E+2	-3.3489E-4
6.8523E+2	1.8526E-3
6.8545E+2	-3.0869E-3
6.8567E+2	-1.8046E-3
6.8589E+2	2.5235E-3
6.8611E+2	1.9657E-3
6.8634E+2	-1.3819E-5
6.8656E+2	-2.8970E-4
6.8678E+2	4.8227E-4
6.8700E+2	-1.1556E-3
6.8722E+2	2.6918E-3
6.8745E+2	3.1120E-3
6.8767E+2	-8.0748E-4
6.8789E+2	5.2493E-3
6.8811E+2	9.6903E-4
6.8833E+2	1.3488E-3
6.8856E+2	1.1697E-3
6.8878E+2	3.6136E-3
6.8900E+2	5.4255E-4
6.8922E+2	-1.5300E-3
6.8944E+2	2.6627E-3
6.8966E+2	6.7465E-5
6.8989E+2	-1.5768E-3
6.9011E+2	-3.9022E-3
6.9033E+2	1.2089E-3
6.9055E+2	-4.0226E-4
6.9077E+2	-5.4912E-4
6.9099E+2	1.8588E-3
6.9122E+2	4.4051E-3
6.9144E+2	1.7456E-3
6.9166E+2	2.8467E-3
6.9188E+2	1.7273E-4
6.9210E+2	1.3001E-3
6.9232E+2	5.8267E-4
6.9255E+2	1.9300E-3
6.9277E+2	1.0293E-3
6.9299E+2	-1.2259E-3
6.9321E+2	2.1188E-3
6.9343E+2	2.7194E-3
6.9365E+2	1.9540E-3
6.9387E+2	2.0565E-3
6.9410E+2	-2.0533E-3
6.9432E+2	-3.6685E-3
6.9454E+2	-2.6586E-3
6.9476E+2	6.1145E-4
6.9498E+2	-5.7175E-4
6.9520E+2	4.8003E-4
6.9542E+2	8.0296E-4
6.9565E+2	6.7227E-4
6.9587E+2	1.5487E-4
6.9609E+2	3.0036E-3
6.9631E+2	1.1583E-4
6.9653E+2	5.0105E-4
6.9675E+2	-3.0780E-4
6.9697E+2	7.5578E-4
6.9719E+2	2.8521E-3
6.9742E+2	-1.7874E-4
6.9764E+2	1.2745E-4
6.9786E+2	2.7990E-4
6.9808E+2	2.7321E-3
6.9830E+2	1.5733E-3
6.9852E+2	3.9009E-3
6.9874E+2	1.6815E-3
6.9896E+2	3.5213E-3
6.9918E+2	1.8531E-3
6.9941E+2	2.0138E-3
6.9963E+2	1.7841E-3
6.9985E+2	6.6346E-3
7.0007E+2	1.2520E-3
7.0029E+2	5.7400E-3
7.0051E+2	6.6422E-3
7.0073E+2	5.8578E-4
7.0095E+2	1.4930E-4
7.0117E+2	2.5847E-3
7.0139E+2	6.2284E-3
7.0161E+2	4.1738E-3
7.0184E+2	3.5483E-3
7.0206E+2	3.8876E-3
7.0228E+2	6.4101E-4
7.0250E+2	2.8062E-3
7.0272E+2	2.1623E-3
7.0294E+2	2.0972E-3
7.0316E+2	1.3835E-3
7.0338E+2	4.5123E-3
7.0360E+2	1.7825E-3
7.0382E+2	5.7647E-3
7.0404E+2	4.2581E-4
7.0426E+2	2.2711E-3
7.0448E+2	4.9129E-3
7.0470E+2	5.2442E-3
7.0492E+2	2.7807E-3
7.0515E+2	3.3188E-3
7.0537E+2	5.9394E-3
7.0559E+2	6.2333E-3
7.0581E+2	7.6770E-3
7.0603E+2	4.0775E-3
7.0625E+2	9.9484E-3
7.0647E+2	7.0510E-3
7.0669E+2	4.6673E-3
7.0691E+2	8.7714E-3
7.0713E+2	6.1505E-3
7.0735E+2	1.0842E-2
7.0757E+2	7.1249E-3
7.0779E+2	7.7322E-3
7.0801E+2	1.1917E-2
7.0823E+2	6.8210E-3
7.0845E+2	4.7003E-3
7.0867E+2	1.1272E-2
7.0889E+2	5.9209E-3
7.0911E+2	6.0629E-3
7.0933E+2	5.8531E-3
7.0955E+2	7.9929E-3
7.0977E+2	4.7738E-3
7.0999E+2	9.9637E-3
7.1021E+2	9.9810E-3
7.1043E+2	6.4099E-3
7.1065E+2	5.8654E-3
7.1087E+2	1.3396E-2
7.1109E+2	1.2947E-2
7.1131E+2	7.6622E-3
7.1153E+2	8.5010E-3
7.1175E+2	9.4634E-3
7.1197E+2	9.5671E-3
7.1219E+2	1.0022E-2
7.1241E+2	1.0600E-2
7.1263E+2	9.1183E-3
7.1285E+2	7.1061E-3
7.1307E+2	6.0154E-3
7.1329E+2	1.1648E-2
7.1351E+2	8.0051E-3
7.1373E+2	7.1068E-3
7.1395E+2	1.2141E-2
7.1417E+2	1.3844E-2
7.1439E+2	1.0291E-2
7.1461E+2	1.2536E-2
7.1483E+2	1.1142E-2
7.1505E+2	1.2660E-2
7.1527E+2	1.3666E-2
7.1549E+2	1.6454E-2
7.1571E+2	1.1922E-2
7.1593E+2	1.3462E-2
7.1615E+2	1.1546E-2
7.1637E+2	1.6670E-2
7.1659E+2	1.2147E-2
7.1681E+2	1.8111E-2
7.1703E+2	1.5655E-2
7.1725E+2	1.5109E-2
7.1747E+2	1.7420E-2
7.1769E+2	1.7146E-2
7.1791E+2	1.6602E-2
7.1813E+2	1.7889E-2
7.1835E+2	1.8000E-2
7.1857E+2	1.9719E-2
7.1879E+2	2.0613E-2
7.1901E+2	1.7538E-2
7.1923E+2	1.9771E-2
7.1944E+2	1.7965E-2
7.1966E+2	1.6675E-2
7.1988E+2	1.7836E-2
7.2010E+2	2.0978E-2
7.2032E+2	1.8360E-2
7.2054E+2	2.6607E-2
7.2076E+2	2.1126E-2
7.2098E+2	2.3477E-2
7.2120E+2	2.7110E-2
7.2142E+2	2.0591E-2
7.2164E+2	2.4725E-2
7.2186E+2	2.1778E-2
7.2208E+2	2.3971E-2
7.2230E+2	2.5328E-2
7.2252E+2	2.5124E-2
7.2273E+2	2.4156E-2
7.2295E+2	2.6994E-2
7.2317E+2	2.4350E-2
7.2339E+2	3.0247E-2
7.2361E+2	3.0046E-2
7.2383E+2	3.1677E-2
7.2405E+2	2.8701E-2
7.2427E+2	3.1252E-2
7.2449E+2	3.2839E-2
7.2471E+2	3.0998E-2
7.2493E+2	3.0129E-2
7.2514E+2	3.4047E-2
7.2536E+2	3.2896E-2
7.2558E+2	2.9750E-2
7.2580E+2	2.8780E-2
7.2602E+2	3.2954E-2
7.2624E+2	3.4902E-2
7.2646E+2	4.0115E-2
7.2668E+2	3.4862E-2
7.2690E+2	3.7319E-2
7.2711E+2	3.9524E-2
7.2733E+2	3.9054E-2
7.2755E+2	3.8074E-2
7.2777E+2	4.1650E-2
7.2799E+2	4.2045E-2
7.2821E+2	4.4651E-2
7.2843E+2	3.7868E-2
7.2865E+2	4.2758E-2
7.2886E+2	4.3455E-2
7.2908E+2	4.4974E-2
7.2930E+2	4.8350E-2
7.2952E+2	4.7599E-2
7.2974E+2	4.4443E-2
7.2996E+2	4.8037E-2
7.3018E+2	4.8604E-2
7.3039E+2	4.5920E-2
7.3061E+2	4.9834E-2
7.3083E+2	4.7198E-2
7.3105E+2	4.9141E-2
7.3127E+2	5.4346E-2
7.3149E+2	5.5466E-2
7.3171E+2	5.1823E-2
7.3192E+2	5.0136E-2
7.3214E+2	5.5720E-2
7.3236E+2	5.7106E-2
7.3258E+2	5.7780E-2
7.3280E+2	5.8754E-2
7.3302E+2	6.3836E-2
7.3323E+2	6.1839E-2
7.3345E+2	6.6868E-2
7.3367E+2	6.7162E-2
7.3389E+2	6.3882E-2
7.3411E+2	6.3097E-2
7.3433E+2	6.6348E-2
7.3454E+2	6.8527E-2
7.3476E+2	6.8439E-2
7.3498E+2	6.8466E-2
7.3520E+2	7.3094E-2
7.3542E+2	7.1111E-2
7.3564E+2	7.2030E-2
7.3585E+2	7.4014E-2
7.3607E+2	7.7739E-2
7.3629E+2	7.9723E-2
7.3651E+2	8.1426E-2
7.3673E+2	7.6469E-2
7.3694E+2	8.1439E-2
7.3716E+2	8.7053E-2
7.3738E+2	8.4027E-2
7.3760E+2	8.6761E-2
7.3782E+2	8.6667E-2
7.3803E+2	8.5711E-2
7.3825E+2	9.1762E-2
7.3847E+2	9.1098E-2
7.3869E+2	9.3943E-2
7.3891E+2	9.5504E-2
7.3912E+2	9.1003E-2
7.3934E+2	1.0124E-1
7.3956E+2	9.7337E-2
7.3978E+2	1.0102E-1
7.4000E+2	1.0460E-1
7.4021E+2	1.0074E-1
7.4043E+2	1.0828E-1
7.4065E+2	1.0492E-1
7.4087E+2	1.0699E-1
7.4108E+2	1.0631E-1
7.4130E+2	1.0937E-1
7.4152E+2	1.0944E-1
7.4174E+2	1.1522E-1
7.4196E+2	1.1669E-1
7.4217E+2	1.1621E-1
7.4239E+2	1.2070E-1
7.4261E+2	1.2169E-1
7.4283E+2	1.2094E-1
7.4304E+2	1.2500E-1
7.4326E+2	1.2665E-1
7.4348E+2	1.3016E-1
7.4370E+2	1.3165E-1
7.4391E+2	1.2922E-1
7.4413E+2	1.3475E-1
7.4435E+2	1.3609E-1
7.4457E+2	1.3735E-1
7.4478E+2	1.3926E-1
7.4500E+2	1.3811E-1
7.4522E+2	1.4329E-1
7.4544E+2	1.4558E-1
7.4565E+2	1.4640E-1
7.4587E+2	1.4998E-1
7.4609E+2	1.5120E-1
7.4631E+2	1.5817E-1
7.4652E+2	1.5569E-1
7.4674E+2	1.6258E-1
7.4696E+2	1.6258E-1
7.4717E+2	1.6733E-1
7.4739E+2	1.6825E-1
7.4761E+2	1.6530E-1
7.4783E+2	1.7158E-1
7.4804E+2	1.7624E-1
7.4826E+2	1.7113E-1
7.4848E+2	1.7901E-1
7.4869E+2	1.7678E-1
7.4891E+2	1.8640E-1
7.4913E+2	1.8717E-1
7.4935E+2	1.9164E-1
7.4956E+2	1.8760E-1
7.4978E+2	1.8986E-1
7.5000E+2	1.9289E-1
7.5021E+2	1.9163E-1
7.5043E+2	2.0236E-1
7.5065E+2	2.0752E-1
7.5087E+2	2.0050E-1
7.5108E+2	2.0949E-1
7.5130E+2	2.1073E-1
7.5152E+2	2.1207E-1
7.5173E+2	2.1113E-1
7.5195E+2	2.2662E-1
7.5217E+2	2.2034E-1
7.5238E+2	2.2601E-1
7.5260E+2	2.3024E-1
7.5282E+2	2.3381E-1
7.5303E+2	2.3422E-1
7.5325E+2	2.3793E-1
7.5347E+2	2.4288E-1
7.5368E+2	2.5135E-1
7.5390E+2	2.4794E-1
7.5412E+2	2.5421E-1
7.5433E+2	2.5944E-1
7.5455E+2	2.5796E-1
7.5477E+2	2.5623E-1
7.5498E+2	2.6900E-1
7.5520E+2	2.6224E-1
7.5542E+2	2.6303E-1
7.5563E+2	2.6949E-1
7.5585E+2	2.7030E-1
7.5607E+2	2.7495E-1
7.5628E+2	2.8279E-1
7.5650E+2	2.7699E-1
7.5672E+2	2.8512E-1
7.5693E+2	2.8778E-1
7.5715E+2	2.9346E-1
7.5737E+2	2.9993E-1
7.5758E+2	3.0234E-1
7.5780E+2	3.0015E-1
7.5802E+2	3.0878E-1
7.5823E+2	3.1509E-1
7.5845E+2	3.1686E-1
7.5866E+2	3.2507E-1
7.5888E+2	3.3238E-1
7.5910E+2	3.3124E-1
7.5931E+2	3.3786E-1
7.5953E+2	3.3448E-1
7.5975E+2	3.3816E-1
7.5996E+2	3.4244E-1
7.6018E+2	3.4044E-1
7.6040E+2	3.4853E-1
7.6061E+2	3.5039E-1
7.6083E+2	3.5319E-1
7.6104E+2	3.5465E-1
7.6126E+2	3.5730E-1
7.6148E+2	3.5993E-1
7.6169E+2	3.6641E-1
7.6191E+2	3.7389E-1
7.6212E+2	3.6673E-1
7.6234E+2	3.7582E-1
7.6256E+2	3.7593E-1
7.6277E+2	3.8691E-1
7.6299E+2	3.9009E-1
7.6320E+2	3.9907E-1
7.6342E+2	4.0420E-1
7.6364E+2	4.0762E-1
7.6385E+2	4.1911E-1
7.6407E+2	4.1630E-1
7.6428E+2	4.2236E-1
7.6450E+2	4.2911E-1
7.6472E+2	4.2565E-1
7.6493E+2	4.3161E-1
7.6515E+2	4.3122E-1
7.6536E+2	4.2797E-1
7.6558E+2	4.4195E-1
7.6579E+2	4.4288E-1
7.6601E+2	4.4447E-1
7.6623E+2	4.4391E-1
7.6644E+2	4.5397E-1
7.6666E+2	4.5409E-1
7.6687E+2	4.6165E-1
7.6709E+2	4.6388E-1
7.6730E+2	4.6998E-1
7.6752E+2	4.6505E-1
7.6774E+2	4.7391E-1
7.6795E+2	4.7773E-1
7.6817E+2	4.8672E-1
7.6838E+2	4.9613E-1
7.6860E+2	4.9812E-1
7.6881E+2	5.0349E-1
7.6903E+2	5.1490E-1
7.6925E+2	5.0999E-1
7.6946E+2	5.1179E-1
7.6968E+2	5.1050E-1
7.6989E+2	5.2449E-1
7.7011E+2	5.3288E-1
7.7032E+2	5.3348E-1
7.7054E+2	5.3341E-1
7.7075E+2	5.4314E-1
7.7097E+2	5.4165E-1
7.7118E+2	5.4173E-1
7.7140E+2	5.4556E-1
7.7161E+2	5.4012E-1
7.7183E+2	5.5267E-1
7.7205E+2	5.5341E-1
7.7226E+2	5.5407E-1
7.7248E+2	5.5880E-1
7.7269E+2	5.5845E-1
7.7291E+2	5.6608E-1
7.7312E+2	5.6747E-1
7.7334E+2	5.7594E-1
7.7355E+2	5.8201E-1
7.7377E+2	5.8700E-1
7.7398E+2	5.9317E-1
7.7420E+2	5.9301E-1
7.7441E+2	5.9668E-1
7.7463E+2	6.1147E-1
7.7484E+2	6.0556E-1
7.7506E+2	6.1649E-1
7.7527E+2	6.1770E-1
7.7549E+2	6.2578E-1
7.7570E+2	6.3332E-1
7.7592E+2	6.3202E-1
7.7613E+2	6.3779E-1
7.7635E+2	6.3156E-1
7.7656E+2	6.3228E-1
7.7678E+2	6.2797E-1
7.7699E+2	6.3486E-1
7.7721E+2	6.4044E-1
7.7742E+2	6.2629E-1
7.7764E+2	6.4093E-1
7.7785E+2	6.3691E-1
7.7807E+2	6.3456E-1
7.7828E+2	6.3296E-1
7.7850E+2	6.4378E-1
7.7871E+2	6.3796E-1
7.7893E+2	6.3587E-1
7.7914E+2	6.4867E-1
7.7936E+2	6.4420E-1
7.7957E+2	6.4921E-1
7.7978E+2	6.4860E-1
7.8000E+2	6.5444E-1
7.8021E+2	6.5446E-1
7.8043E+2	6.5970E-1
7.8064E+2	6.6361E-1
7.8086E+2	6.6507E-1
7.8107E+2	6.7066E-1
7.8129E+2	6.6434E-1
7.8150E+2	6.6832E-1
7.8172E+2	6.6532E-1
7.8193E+2	6.6989E-1
7.8214E+2	6.6531E-1
7.8236E+2	6.6911E-1
7.8257E+2	6.6394E-1
7.8279E+2	6.6236E-1
7.8300E+2	6.6484E-1
7.8322E+2	6.6204E-1
7.8343E+2	6.6090E-1
7.8365E+2	6.5374E-1
7.8386E+2	6.5160E-1
7.8407E+2	6.5387E-1
7.8429E+2	6.6095E-1
7.8450E+2	6.5670E-1
7.8472E+2	6.5723E-1
7.8493E+2	6.5952E-1
7.8515E+2	6.5857E-1
7.8536E+2	6.4971E-1
7.8557E+2	6.5796E-1
7.8579E+2	6.5740E-1
7.8600E+2	6.5601E-1
7.8622E+2	6.6177E-1
7.8643E+2	6.6477E-1
7.8665E+2	6.6591E-1
7.8686E+2	6.6745E-1
7.8707E+2	6.6148E-1
7.8729E+2	6.6415E-1
7.8750E+2	6.6350E-1
7.8772E+2	6.5443E-1
7.8793E+2	6.5182E-1
7.8814E+2	6.4527E-1
7.8836E+2	6.4894E-1
7.8857E+2	6.4069E-1
7.8879E+2	6.3785E-1
7.8900E+2	6.3135E-1
7.8921E+2	6.3433E-1
7.8943E+2	6.2661E-1
7.8964E+2	6.1856E-1
7.8985E+2	6.2152E-1
7.9007E+2	6.1573E-1
7.9028E+2	6.1546E-1
7.9050E+2	6.1408E-1
7.9071E+2	6.1652E-1
7.9092E+2	6.1222E-1
7.9114E+2	6.0138E-1
7.9135E+2	6.0712E-1
7.9157E+2	6.0550E-1
7.9178E+2	6.0136E-1
7.9199E+2	5.9940E-1
7.9221E+2	5.9353E-1
7.9242E+2	5.9502E-1
7.9263E+2	5.9552E-1
7.9285E+2	5.9592E-1
7.9306E+2	5.8761E-1
7.9327E+2	5.8707E-1
7.9349E+2	5.7856E-1
7.9370E+2	5.8013E-1
7.9392E+2	5.6759E-1
7.9413E+2	5.7572E-1
7.9434E+2	5.5778E-1
7.9456E+2	5.5842E-1
7.9477E+2	5.5055E-1
7.9498E+2	5.4205E-1
7.9520E+2	5.3449E-1
7.9541E+2	5.3138E-1
7.9562E+2	5.2236E-1
7.9584E+2	5.1694E-1
7.9605E+2	5.1855E-1
7.9626E+2	5.1127E-1
7.9648E+2	5.0894E-1
7.9669E+2	4.9862E-1
7.9690E+2	4.9780E-1
7.9712E+2	4.9562E-1
7.9733E+2	4.9267E-1
7.9754E+2	4.9400E-1
7.9776E+2	4.7866E-1
7.9797E+2	4.8186E-1
7.9818E+2	4.7831E-1
7.9840E+2	4.7690E-1
7.9861E+2	4.7734E-1
7.9882E+2	4.6569E-1
7.9904E+2	4.6307E-1
7.9925E+2	4.6148E-1
7.9946E+2	4.5604E-1
7.9967E+2	4.5362E-1
7.9989E+2	4.4185E-1
8.0010E+2	4.3519E-1
8.0031E+2	4.3359E-1
8.0053E+2	4.2419E-1
8.0074E+2	4.1905E-1
8.0095E+2	4.1550E-1
8.0117E+2	4.0692E-1
8.0138E+2	4.0335E-1
8.0159E+2	3.9896E-1
8.0180E+2	3.9176E-1
8.0202E+2	3.8657E-1
8.0223E+2	3.8142E-1
8.0244E+2	3.7821E-1
8.0266E+2	3.7177E-1
8.0287E+2	3.6609E-1
8.0308E+2	3.6862E-1
8.0329E+2	3.6628E-1
8.0351E+2	3.6214E-1
8.0372E+2	3.5347E-1
8.0393E+2	3.5988E-1
8.0415E+2	3.5222E-1
8.0436E+2	3.4547E-1
8.0457E+2	3.4265E-1
8.0478E+2	3.3948E-1
8.0500E+2	3.2911E-1
8.0521E+2	3.2839E-1
8.0542E+2	3.2706E-1
8.0563E+2	3.2008E-1
8.0585E+2	3.1382E-1
8.0606E+2	3.1401E-1
8.0627E+2	3.0642E-1
8.0648E+2	3.0425E-1
8.0670E+2	2.9651E-1
8.0691E+2	2.9981E-1
8.0712E+2	2.9092E-1
8.0733E+2	2.8680E-1
8.0755E+2	2.7902E-1
8.0776E+2	2.7944E-1
8.0797E+2	2.7508E-1
8.0818E+2	2.7020E-1
8.0840E+2	2.6856E-1
8.0861E+2	2.6249E-1
8.0882E+2	2.5577E-1
8.0903E+2	2.5050E-1
8.0925E+2	2.4856E-1
8.0946E+2	2.5096E-1
8.0967E+2	2.4436E-1
8.0988E+2	2.4931E-1
8.1009E+2	2.4318E-1
8.1031E+2	2.3738E-1
8.1052E+2	2.2941E-1
8.1073E+2	2.3299E-1
8.1094E+2	2.2847E-1
8.1116E+2	2.2836E-1
8.1137E+2	2.2102E-1
8.1158E+2	2.2271E-1
8.1179E+2	2.1819E-1
8.1200E+2	2.1890E-1
8.1222E+2	2.1277E-1
8.1243E+2	2.0700E-1
8.1264E+2	2.0314E-1
8.1285E+2	2.0168E-1
8.1306E+2	1.9559E-1
8.1328E+2	1.9120E-1
8.1349E+2	1.9033E-1
8.1370E+2	1.8650E-1
8.1391E+2	1.8162E-1
8.1412E+2	1.8150E-1
8.1434E+2	1.8045E-1
8.1455E+2	1.7516E-1
8.1476E+2	1.7325E-1
8.1497E+2	1.6816E-1
8.1518E+2	1.6785E-1
8.1540E+2	1.6372E-1
8.1561E+2	1.5868E-1
8.1582E+2	1.6265E-1
8.1603E+2	1.5623E-1
8.1624E+2	1.5254E-1
8.1645E+2	1.5535E-1
8.1667E+2	1.5382E-1
8.1688E+2	1.5037E-1
8.1709E+2	1.4205E-1
8.1730E+2	1.4437E-1
8.1751E+2	1.4595E-1
8.1772E+2	1.4237E-1
8.1794E+2	1.4370E-1
8.1815E+2	1.3932E-1
8.1836E+2	1.3509E-1
8.1857E+2	1.3805E-1
8.1878E+2	1.3075E-1
8.1899E+2	1.2515E-1
8.1921E+2	1.3021E-1
8.1942E+2	1.2370E-1
8.1963E+2	1.2285E-1
8.1984E+2	1.2213E-1
8.2005E+2	1.1507E-1
8.2026E+2	1.1271E-1
8.2047E+2	1.1519E-1
8.2069E+2	1.1166E-1
8.2090E+2	1.0924E-1
8.2111E+2	1.0682E-1
8.2132E+2	1.0338E-1
8.2153E+2	1.0603E-1
8.2174E+2	1.0212E-1
8.2195E+2	1.0185E-1
8.2216E+2	9.9909E-2
8.2238E+2	9.8584E-2
8.2259E+2	1.0022E-1
8.2280E+2	9.7739E-2
8.2301E+2	9.7819E-2
8.2322E+2	9.3790E-2
8.2343E+2	9.2834E-2
8.2364E+2	9.4904E-2
8.2385E+2	8.9069E-2
8.2407E+2	8.9333E-2
8.2428E+2	8.8789E-2
8.2449E+2	8.7974E-2
8.2470E+2	8.5289E-2
8.2491E+2	8.2790E-2
8.2512E+2	8.0246E-2
8.2533E+2	8.2790E-2
8.2554E+2	8.0278E-2
8.2575E+2	8.0369E-2
8.2596E+2	7.7647E-2
8.2618E+2	7.3214E-2
8.2639E+2	7.4547E-2
8.2660E+2	7.1248E-2
8.2681E+2	7.2026E-2
8.2702E+2	6.9592E-2
8.2723E+2	6.9835E-2
8.2744E+2	6.5254E-2
8.2765E+2	6.4963E-2
8.2786E+2	6.6640E-2
8.2807E+2	6.2264E-2
8.2828E+2	6.2092E-2
8.2849E+2	6.3214E-2
8.2871E+2	6.3760E-2
8.2892E+2	6.1350E-2
8.2913E+2	5.9806E-2
8.2934E+2	5.5856E-2
8.2955E+2	5.8551E-2
8.2976E+2	5.8882E-2
8.2997E+2	5.7049E-2
8.3018E+2	5.6151E-2
8.3039E+2	5.5779E-2
8.3060E+2	5.4347E-2
8.3081E+2	5.3080E-2
8.3102E+2	5.4355E-2
8.3123E+2	5.1690E-2
8.3144E+2	5.0402E-2
8.3165E+2	5.2806E-2
8.3186E+2	5.0788E-2
8.3208E+2	5.0259E-2
8.3229E+2	4.7186E-2
8.3250E+2	4.5926E-2
8.3271E+2	4.7597E-2
8.3292E+2	4.5276E-2
8.3313E+2	4.5057E-2
8.3334E+2	4.5088E-2
8.3355E+2	4.2998E-2
8.3376E+2	4.1941E-2
8.3397E+2	4.0632E-2
8.3418E+2	4.1180E-2
8.3439E+2	4.0713E-2
8.3460E+2	4.0124E-2
8.3481E+2	4.0268E-2
8.3502E+2	3.8056E-2
8.3523E+2	3.9243E-2
8.3544E+2	3.8574E-2
8.3565E+2	3.8249E-2
8.3586E+2	3.5003E-2
8.3607E+2	3.5297E-2
8.3628E+2	3.4339E-2
8.3649E+2	3.1066E-2
8.3670E+2	3.5794E-2
8.3691E+2	3.3857E-2
8.3712E+2	3.2600E-2
8.3733E+2	3.3908E-2
8.3754E+2	3.0906E-2
8.3775E+2	3.2162E-2
8.3796E+2	3.3136E-2
8.3817E+2	3.0126E-2
8.3838E+2	3.0576E-2
8.3859E+2	3.2989E-2
8.3880E+2	3.0241E-2
8.3901E+2	2.7576E-2
8.3922E+2	2.9827E-2
8.3943E+2	2.6931E-2
8.3964E+2	2.9384E-2
8.3985E+2	2.7109E-2
8.4006E+2	2.6723E-2
8.4027E+2	2.6238E-2
8.4048E+2	2.4642E-2
8.4069E+2	2.3382E-2
8.4090E+2	2.4642E-2
8.4111E+2	2.2580E-2
8.4132E+2	2.5053E-2
8.4153E+2	2.2732E-2
8.4174E+2	2.1878E-2
8.4195E+2	2.0269E-2
8.4216E+2	2.1477E-2
8.4237E+2	2.2928E-2
8.4258E+2	2.1147E-2
8.4279E+2	1.9660E-2
8.4300E+2	2.1478E-2
8.4321E+2	2.3867E-2
8.4342E+2	1.8934E-2
8.4362E+2	2.0480E-2
8.4383E+2	2.0240E-2
8.4404E+2	2.0329E-2
8.4425E+2	2.0751E-2
8.4446E+2	1.8647E-2
8.4467E+2	1.8707E-2
8.4488E+2	1.7553E-2
8.4509E+2	1.9000E-2
8.4530E+2	1.8732E-2
8.4551E+2	1.7987E-2
8.4572E+2	1.8801E-2
8.4593E+2	1.7814E-2
8.4614E+2	1.8185E-2
8.4635E+2	1.7625E-2
8.4656E+2	1.5943E-2
8.4677E+2	1.5838E-2
8.4697E+2	1.8492E-2
8.4718E+2	5.3968E-3
8.4739E+2	-7.2062E-3
8.4760E+2	1.2985E-3
8.4781E+2	1.4357E-2
8.4802E+2	1.5889E-2
8.4823E+2	1.3830E-2
8.4844E+2	1.3898E-2
8.4865E+2	1.1725E-2
8.4886E+2	1.4698E-2
8.4907E+2	1.2935E-2
8.4928E+2	1.2962E-2
8.4948E+2	1.2036E-2
8.4969E+2	1.2615E-2
8.4990E+2	1.1340E-2
8.5011E+2	3.1846E-3
8.5032E+2	8.2735E-3
8.5053E+2	1.1606E-2
8.5074E+2	1.2626E-2
8.5095E+2	1.2023E-2
8.5116E+2	1.2251E-2
8.5137E+2	1.4235E-2
8.5157E+2	1.0558E-2
8.5178E+2	1.0133E-2
8.5199E+2	1.0080E-2
8.5220E+2	1.0057E-2
8.5241E+2	1.0973E-2
8.5262E+2	1.0978E-2
8.5283E+2	9.1660E-3
8.5304E+2	1.0656E-2
8.5324E+2	1.0776E-2
8.5345E+2	1.0781E-2
8.5366E+2	1.0144E-2
8.5387E+2	9.0550E-3
8.5408E+2	7.5416E-3
8.5429E+2	8.8880E-3
8.5450E+2	9.6326E-3
8.5471E+2	9.9302E-3
8.5491E+2	9.2652E-3
8.5512E+2	9.0473E-3
8.5533E+2	9.9007E-3
8.5554E+2	9.0927E-3
8.5575E+2	7.4940E-3
8.5596E+2	7.5970E-3
8.5617E+2	7.4594E-3
8.5637E+2	7.2245E-3
8.5658E+2	7.7515E-3
8.5679E+2	8.0322E-3
8.5700E+2	7.2244E-3
8.5721E+2	7.3619E-3
8.5742E+2	7.5567E-3
8.5762E+2	7.6656E-3
8.5783E+2	5.7006E-3
8.5804E+2	6.4741E-3
8.5825E+2	6.6002E-3
8.5846E+2	7.9239E-3
8.5867E+2	7.3740E-3
8.5887E+2	7.3455E-3
8.5908E+2	9.7408E-3
8.5929E+2	5.6212E-3
8.5950E+2	5.8334E-3
8.5971E+2	4.6703E-3
8.5992E+2	8.5043E-3
8.6012E+2	6.1378E-3
8.6033E+2	6.5221E-3
8.6054E+2	6.0352E-3
8.6075E+2	7.3023E-3
8.6096E+2	7.3313E-3
8.6116E+2	6.6667E-3
8.6137E+2	4.9644E-3
8.6158E+2	6.4611E-3
8.6179E+2	5.4926E-3
8.6200E+2	3.9563E-3
8.6220E+2	4.8970E-3
8.6241E+2	5.5339E-3
8.6262E+2	4.5364E-3
8.6283E+2	5.2136E-3
8.6304E+2	4.3651E-3
8.6324E+2	4.4573E-3
8.6345E+2	4.2052E-3
8.6366E+2	6.0415E-3
8.6387E+2	6.8395E-3
8.6408E+2	4.9178E-3
8.6428E+2	4.2010E-3
8.6449E+2	4.7237E-3
8.6470E+2	5.0514E-3
8.6491E+2	5.2357E-3
8.6511E+2	3.9329E-3
8.6532E+2	3.9564E-3
8.6553E+2	3.9798E-3
8.6574E+2	4.4455E-3
8.6595E+2	3.2915E-3
8.6615E+2	6.4058E-3
8.6636E+2	3.9357E-3
8.6657E+2	4.7349E-3
8.6678E+2	4.7413E-3
8.6698E+2	2.2244E-3
8.6719E+2	3.2192E-3
8.6740E+2	4.0419E-3
8.6761E+2	4.1632E-3
8.6781E+2	4.1006E-3
8.6802E+2	3.5318E-3
8.6823E+2	3.9063E-3
8.6844E+2	3.6883E-3
8.6864E+2	4.2759E-3
8.6885E+2	4.1845E-3
8.6906E+2	4.8239E-3
8.6927E+2	4.2489E-3
8.6947E+2	4.3821E-3
8.6968E+2	1.8315E-3
8.6989E+2	5.9735E-3
8.7010E+2	4.4939E-3
8.7030E+2	3.6765E-3
8.7051E+2	3.1181E-3
8.7072E+2	1.9370E-3
8.7093E+2	3.6152E-3
8.7113E+2	1.9146E-3
8.7134E+2	3.0629E-3
8.7155E+2	3.7097E-3
8.7175E+2	4.7895E-3
8.7196E+2	2.2046E-3
8.7217E+2	1.5874E-3
8.7238E+2	2.9388E-3
8.7258E+2	4.2792E-3
8.7279E+2	3.0151E-3
8.7300E+2	3.3220E-3
8.7320E+2	3.5077E-3
8.7341E+2	1.4970E-3
8.7362E+2	2.8271E-3
8.7383E+2	3.0649E-3
8.7403E+2	2.0071E-3
8.7424E+2	3.1531E-3
8.7445E+2	1.8808E-3
8.7465E+2	1.1461E-3
8.7486E+2	4.6546E-3
8.7507E+2	1.7082E-3
8.7527E+2	1.8882E-3
8.7548E+2	1.7728E-3
8.7569E+2	1.7617E-3
8.7590E+2	3.8953E-3
8.7610E+2	1.5365E-3
8.7631E+2	2.4358E-3
8.7652E+2	3.0108E-3
8.7672E+2	2.7041E-3
8.7693E+2	2.1824E-3
8.7714E+2	2.2179E-3
8.7734E+2	1.9339E-3
8.7755E+2	3.6714E-3
8.7776E+2	1.6560E-3
8.7796E+2	1.9237E-3
8.7817E+2	2.3370E-3
8.7838E+2	1.3200E-3
8.7858E+2	6.8058E-4
8.7879E+2	8.6698E-4
8.7900E+2	3.2361E-3
8.7920E+2	2.4046E-3
8.7941E+2	2.0850E-3
8.7962E+2	1.9167E-3
8.7982E+2	1.2180E-3
8.8003E+2	3.0546E-3
8.8024E+2	3.2364E-3
8.8044E+2	1.9774E-3
8.8065E+2	2.5849E-3
8.8086E+2	4.0392E-3
8.8106E+2	1.5471E-3
8.8127E+2	1.7695E-3
8.8148E+2	3.2539E-3
8.8168E+2	2.7992E-3
8.8189E+2	2.6072E-3
8.8209E+2	3.7660E-3
8.8230E+2	2.2229E-3
8.8251E+2	2.5631E-3
8.8271E+2	3.0323E-3
8.8292E+2	1.9852E-3
8.8313E+2	3.1457E-3
8.8333E+2	1.2248E-3
8.8354E+2	3.0190E-3
8.8374E+2	2.7504E-3
8.8395E+2	3.0154E-3
8.8416E+2	8.8605E-4
8.8436E+2	2.8644E-3
8.8457E+2	2.0669E-3
8.8478E+2	9.9860E-4
8.8498E+2	8.4032E-4
8.8519E+2	1.3932E-3
8.8539E+2	2.3406E-3
8.8560E+2	1.2413E-3
8.8581E+2	5.0614E-4
8.8601E+2	1.1422E-3
8.8622E+2	2.7742E-3
8.8642E+2	2.3628E-3
8.8663E+2	2.4816E-3
8.8684E+2	2.2055E-3
8.8704E+2	3.5278E-3
8.8725E+2	3.0099E-3
8.8745E+2	2.4443E-3
8.8766E+2	6.3781E-4
8.8787E+2	1.6660E-3
8.8807E+2	1.5130E-3
8.8828E+2	1.3303E-3
8.8848E+2	1.4551E-3
8.8869E+2	1.5622E-3
8.8890E+2	8.2881E-4
8.8910E+2	1.3089E-3
8.8931E+2	1.6946E-3
8.8951E+2	2.0332E-3
8.8972E+2	3.2320E-3
8.8992E+2	4.2123E-4
8.9013E+2	4.5228E-3
8.9034E+2	2.6543E-3
8.9054E+2	1.3723E-3
8.9075E+2	2.7755E-3
8.9095E+2	1.8908E-3
8.9116E+2	1.7962E-3
8.9136E+2	1.9992E-3
8.9157E+2	1.5298E-3
8.9177E+2	9.2904E-4
8.9198E+2	4.7069E-4
8.9219E+2	2.9804E-3
8.9239E+2	1.4193E-3
8.9260E+2	1.6288E-3
8.9280E+2	-1.2535E-4
8.9301E+2	2.1738E-3
8.9321E+2	2.2883E-3
8.9342E+2	8.3685E-4
8.9362E+2	3.0440E-3
8.9383E+2	2.4352E-3
8.9404E+2	1.7420E-3
8.9424E+2	2.2758E-4
8.9445E+2	1.5339E-3
8.9465E+2	1.6426E-3
8.9486E+2	1.4512E-3
8.9506E+2	8.4589E-4
8.9527E+2	-6.0022E-6
8.9547E+2	1.8195E-3
8.9568E+2	2.5955E-3
8.9588E+2	1.8694E-3
8.9609E+2	2.3575E-3
8.9629E+2	2.4971E-3
8.9650E+2	6.3813E-4
8.9670E+2	1.8973E-3
8.9691E+2	1.8681E-4
8.9711E+2	2.3876E-3
8.9732E+2	1.1582E-3
8.9752E+2	6.4580E-4
8.9773E+2	1.2923E-3
8.9793E+2	8.5189E-4
8.9814E+2	1.4689E-3
8.9834E+2	1.6027E-3
8.9855E+2	-1.2708E-4
8.9875E+2	2.6215E-3
8.9896E+2	2.4287E-3
8.9916E+2	2.4176E-3
8.9937E+2	1.6672E-3
8.9957E+2	1.8136E-3
8.9978E+2	8.9213E-4
8.9998E+2	1.6152E-3
9.0019E+2	2.4727E-3
9.0039E+2	-1.3495E-3
9.0060E+2	1.1130E-3
9.0080E+2	3.4078E-3
9.0101E+2	1.8205E-3
9.0121E+2	-5.5438E-4
9.0142E+2	2.9441E-3
9.0162E+2	-1.0368E-4
