PLQY measurement:
Date: 	12.04.2023 13:02:12
Peak emission wavelength (nm): 776
 PLQY = 	 	2.16E-2
absorded light fraction (%): 87
MAYA saturard: FALSE
USB2000 saturaed: FALSE
wavelength	corrected total emission spec
6.7588E+2	3.4513E-3
6.7611E+2	1.3368E-3
6.7633E+2	5.1303E-3
6.7655E+2	3.1824E-3
6.7677E+2	2.1734E-3
6.7700E+2	5.1077E-3
6.7722E+2	3.5368E-4
6.7744E+2	3.9867E-3
6.7766E+2	3.9212E-3
6.7789E+2	2.4498E-3
6.7811E+2	4.7161E-3
6.7833E+2	3.5090E-4
6.7856E+2	4.1160E-3
6.7878E+2	7.0125E-3
6.7900E+2	6.5941E-3
6.7922E+2	3.2840E-3
6.7945E+2	3.8151E-3
6.7967E+2	2.8963E-4
6.7989E+2	4.8891E-3
6.8011E+2	2.5995E-3
6.8034E+2	9.0682E-3
6.8056E+2	2.7921E-3
6.8078E+2	2.1707E-3
6.8100E+2	7.0187E-3
6.8123E+2	8.7402E-4
6.8145E+2	3.4042E-3
6.8167E+2	4.5693E-4
6.8189E+2	2.2535E-3
6.8212E+2	8.9712E-4
6.8234E+2	-3.8381E-3
6.8256E+2	3.1220E-4
6.8278E+2	1.4174E-3
6.8300E+2	-3.9626E-4
6.8323E+2	9.6067E-3
6.8345E+2	3.7655E-3
6.8367E+2	5.9414E-3
6.8389E+2	6.1454E-3
6.8412E+2	1.0937E-2
6.8434E+2	5.6063E-4
6.8456E+2	1.7490E-3
6.8478E+2	3.5079E-3
6.8500E+2	3.8233E-3
6.8523E+2	3.5520E-3
6.8545E+2	3.2677E-3
6.8567E+2	-2.9706E-3
6.8589E+2	2.4819E-3
6.8611E+2	-2.0211E-3
6.8634E+2	2.3907E-3
6.8656E+2	1.6002E-3
6.8678E+2	5.5530E-3
6.8700E+2	9.9054E-4
6.8722E+2	4.1200E-3
6.8745E+2	7.3482E-3
6.8767E+2	6.2135E-3
6.8789E+2	-9.1589E-4
6.8811E+2	3.5486E-3
6.8833E+2	1.1445E-3
6.8856E+2	6.2155E-3
6.8878E+2	3.5049E-3
6.8900E+2	1.3021E-3
6.8922E+2	6.7700E-4
6.8944E+2	3.0817E-3
6.8966E+2	2.4962E-3
6.8989E+2	4.5149E-3
6.9011E+2	2.5970E-3
6.9033E+2	5.6819E-3
6.9055E+2	6.0339E-3
6.9077E+2	3.7501E-3
6.9099E+2	8.7589E-3
6.9122E+2	1.2401E-2
6.9144E+2	9.1945E-4
6.9166E+2	4.7888E-3
6.9188E+2	4.0259E-3
6.9210E+2	4.2981E-3
6.9232E+2	4.7408E-3
6.9255E+2	4.4417E-3
6.9277E+2	7.6541E-4
6.9299E+2	5.2593E-3
6.9321E+2	4.5666E-3
6.9343E+2	8.2237E-3
6.9365E+2	7.5143E-3
6.9387E+2	7.1126E-3
6.9410E+2	3.8319E-3
6.9432E+2	1.0797E-2
6.9454E+2	8.2494E-3
6.9476E+2	7.5716E-3
6.9498E+2	5.6785E-3
6.9520E+2	5.7604E-3
6.9542E+2	1.4246E-3
6.9565E+2	9.6703E-3
6.9587E+2	6.2852E-3
6.9609E+2	6.0587E-3
6.9631E+2	1.0760E-2
6.9653E+2	8.1582E-3
6.9675E+2	3.7449E-3
6.9697E+2	7.8140E-3
6.9719E+2	5.7171E-3
6.9742E+2	1.2461E-2
6.9764E+2	6.3979E-3
6.9786E+2	5.2672E-3
6.9808E+2	6.2267E-4
6.9830E+2	2.3726E-3
6.9852E+2	2.8623E-3
6.9874E+2	6.9536E-3
6.9896E+2	5.2251E-3
6.9918E+2	7.3368E-3
6.9941E+2	4.8331E-3
6.9963E+2	1.0529E-2
6.9985E+2	6.2458E-3
7.0007E+2	7.9253E-3
7.0029E+2	3.7766E-3
7.0051E+2	1.3597E-2
7.0073E+2	5.6957E-3
7.0095E+2	5.4369E-3
7.0117E+2	7.5057E-3
7.0139E+2	1.0856E-2
7.0161E+2	6.4032E-3
7.0184E+2	9.2973E-3
7.0206E+2	4.4554E-3
7.0228E+2	1.1871E-2
7.0250E+2	1.2972E-2
7.0272E+2	9.2637E-3
7.0294E+2	7.5548E-3
7.0316E+2	1.0811E-2
7.0338E+2	8.8045E-3
7.0360E+2	1.3918E-2
7.0382E+2	1.5929E-2
7.0404E+2	8.7230E-3
7.0426E+2	1.4112E-2
7.0448E+2	1.4690E-2
7.0470E+2	1.4328E-2
7.0492E+2	1.3661E-2
7.0515E+2	1.1091E-2
7.0537E+2	1.2819E-2
7.0559E+2	8.9167E-3
7.0581E+2	1.5198E-2
7.0603E+2	1.6226E-2
7.0625E+2	1.3229E-2
7.0647E+2	9.2978E-3
7.0669E+2	1.2951E-2
7.0691E+2	1.5135E-2
7.0713E+2	1.4597E-2
7.0735E+2	1.2386E-2
7.0757E+2	1.1310E-2
7.0779E+2	1.5050E-2
7.0801E+2	1.1337E-2
7.0823E+2	1.2344E-2
7.0845E+2	1.0920E-2
7.0867E+2	1.7426E-2
7.0889E+2	1.7986E-2
7.0911E+2	2.5119E-2
7.0933E+2	1.7161E-2
7.0955E+2	2.0520E-2
7.0977E+2	1.4578E-2
7.0999E+2	1.5942E-2
7.1021E+2	1.6949E-2
7.1043E+2	2.2075E-2
7.1065E+2	1.6634E-2
7.1087E+2	2.0632E-2
7.1109E+2	1.5918E-2
7.1131E+2	2.1209E-2
7.1153E+2	1.8327E-2
7.1175E+2	2.1526E-2
7.1197E+2	1.5735E-2
7.1219E+2	2.4138E-2
7.1241E+2	2.5206E-2
7.1263E+2	2.3824E-2
7.1285E+2	2.4763E-2
7.1307E+2	2.1043E-2
7.1329E+2	1.9235E-2
7.1351E+2	2.1574E-2
7.1373E+2	2.2760E-2
7.1395E+2	2.5334E-2
7.1417E+2	2.3891E-2
7.1439E+2	2.8615E-2
7.1461E+2	2.6211E-2
7.1483E+2	2.6872E-2
7.1505E+2	2.4816E-2
7.1527E+2	2.7836E-2
7.1549E+2	2.6740E-2
7.1571E+2	2.7162E-2
7.1593E+2	3.0549E-2
7.1615E+2	2.9059E-2
7.1637E+2	3.1004E-2
7.1659E+2	2.9601E-2
7.1681E+2	3.0580E-2
7.1703E+2	3.4154E-2
7.1725E+2	2.9610E-2
7.1747E+2	3.1499E-2
7.1769E+2	2.9513E-2
7.1791E+2	3.2852E-2
7.1813E+2	3.2684E-2
7.1835E+2	3.5475E-2
7.1857E+2	3.3171E-2
7.1879E+2	3.4301E-2
7.1901E+2	3.5817E-2
7.1923E+2	3.7234E-2
7.1944E+2	3.6625E-2
7.1966E+2	3.4576E-2
7.1988E+2	3.9607E-2
7.2010E+2	3.8537E-2
7.2032E+2	3.7378E-2
7.2054E+2	3.8530E-2
7.2076E+2	4.3877E-2
7.2098E+2	3.7203E-2
7.2120E+2	3.9323E-2
7.2142E+2	4.2243E-2
7.2164E+2	4.4617E-2
7.2186E+2	4.6215E-2
7.2208E+2	4.6214E-2
7.2230E+2	4.4587E-2
7.2252E+2	4.5369E-2
7.2273E+2	4.4695E-2
7.2295E+2	4.7211E-2
7.2317E+2	4.6637E-2
7.2339E+2	5.3229E-2
7.2361E+2	5.2070E-2
7.2383E+2	5.5829E-2
7.2405E+2	5.3273E-2
7.2427E+2	5.7282E-2
7.2449E+2	5.8503E-2
7.2471E+2	5.4279E-2
7.2493E+2	5.6563E-2
7.2514E+2	6.0851E-2
7.2536E+2	5.7583E-2
7.2558E+2	5.9988E-2
7.2580E+2	5.8918E-2
7.2602E+2	6.1891E-2
7.2624E+2	6.0489E-2
7.2646E+2	6.2242E-2
7.2668E+2	6.3869E-2
7.2690E+2	7.1684E-2
7.2711E+2	6.5332E-2
7.2733E+2	6.6232E-2
7.2755E+2	6.5031E-2
7.2777E+2	7.4342E-2
7.2799E+2	7.0316E-2
7.2821E+2	7.4310E-2
7.2843E+2	7.1565E-2
7.2865E+2	7.6456E-2
7.2886E+2	7.2847E-2
7.2908E+2	7.8970E-2
7.2930E+2	7.9654E-2
7.2952E+2	8.2905E-2
7.2974E+2	7.8185E-2
7.2996E+2	8.9928E-2
7.3018E+2	8.3625E-2
7.3039E+2	8.3203E-2
7.3061E+2	7.9673E-2
7.3083E+2	8.2702E-2
7.3105E+2	8.5141E-2
7.3127E+2	8.8450E-2
7.3149E+2	9.2941E-2
7.3171E+2	9.6772E-2
7.3192E+2	9.6573E-2
7.3214E+2	9.5394E-2
7.3236E+2	1.0152E-1
7.3258E+2	1.0745E-1
7.3280E+2	1.0494E-1
7.3302E+2	1.0451E-1
7.3323E+2	1.0357E-1
7.3345E+2	1.0308E-1
7.3367E+2	1.0852E-1
7.3389E+2	1.0931E-1
7.3411E+2	1.0490E-1
7.3433E+2	1.1087E-1
7.3454E+2	1.1335E-1
7.3476E+2	1.1975E-1
7.3498E+2	1.1633E-1
7.3520E+2	1.1481E-1
7.3542E+2	1.1974E-1
7.3564E+2	1.2284E-1
7.3585E+2	1.2474E-1
7.3607E+2	1.3193E-1
7.3629E+2	1.3473E-1
7.3651E+2	1.3039E-1
7.3673E+2	1.2942E-1
7.3694E+2	1.4281E-1
7.3716E+2	1.4062E-1
7.3738E+2	1.3686E-1
7.3760E+2	1.4491E-1
7.3782E+2	1.4793E-1
7.3803E+2	1.4486E-1
7.3825E+2	1.4731E-1
7.3847E+2	1.5421E-1
7.3869E+2	1.5618E-1
7.3891E+2	1.7088E-1
7.3912E+2	2.7025E-1
7.3934E+2	1.6611E-1
7.3956E+2	1.6489E-1
7.3978E+2	1.6498E-1
7.4000E+2	1.7320E-1
7.4021E+2	1.6939E-1
7.4043E+2	1.7511E-1
7.4065E+2	1.9785E-1
7.4087E+2	2.1770E-1
7.4108E+2	2.1033E-1
7.4130E+2	2.1639E-1
7.4152E+2	2.2269E-1
7.4174E+2	2.2549E-1
7.4196E+2	2.2643E-1
7.4217E+2	2.4069E-1
7.4239E+2	2.7359E-1
7.4261E+2	2.1867E-1
7.4283E+2	2.0829E-1
7.4304E+2	2.1051E-1
7.4326E+2	2.1435E-1
7.4348E+2	2.1766E-1
7.4370E+2	2.2267E-1
7.4391E+2	2.2475E-1
7.4413E+2	2.2545E-1
7.4435E+2	2.2808E-1
7.4457E+2	2.2981E-1
7.4478E+2	2.3682E-1
7.4500E+2	2.3556E-1
7.4522E+2	2.4197E-1
7.4544E+2	2.3707E-1
7.4565E+2	2.4745E-1
7.4587E+2	2.4928E-1
7.4609E+2	2.6027E-1
7.4631E+2	2.5903E-1
7.4652E+2	2.6133E-1
7.4674E+2	2.7197E-1
7.4696E+2	2.7125E-1
7.4717E+2	2.8083E-1
7.4739E+2	2.8053E-1
7.4761E+2	2.9258E-1
7.4783E+2	2.8879E-1
7.4804E+2	2.9796E-1
7.4826E+2	2.9622E-1
7.4848E+2	3.0652E-1
7.4869E+2	3.0238E-1
7.4891E+2	3.0603E-1
7.4913E+2	3.1446E-1
7.4935E+2	3.0874E-1
7.4956E+2	3.1869E-1
7.4978E+2	3.2982E-1
7.5000E+2	3.2574E-1
7.5021E+2	3.3494E-1
7.5043E+2	3.3282E-1
7.5065E+2	3.4443E-1
7.5087E+2	3.4169E-1
7.5108E+2	3.5125E-1
7.5130E+2	3.5079E-1
7.5152E+2	3.6205E-1
7.5173E+2	3.5773E-1
7.5195E+2	3.6844E-1
7.5217E+2	3.8214E-1
7.5238E+2	3.8814E-1
7.5260E+2	3.8407E-1
7.5282E+2	3.9916E-1
7.5303E+2	3.9386E-1
7.5325E+2	4.1397E-1
7.5347E+2	4.1351E-1
7.5368E+2	4.1671E-1
7.5390E+2	4.1764E-1
7.5412E+2	4.2961E-1
7.5433E+2	4.2611E-1
7.5455E+2	4.3614E-1
7.5477E+2	4.3488E-1
7.5498E+2	4.3583E-1
7.5520E+2	4.4181E-1
7.5542E+2	4.5541E-1
7.5563E+2	4.4806E-1
7.5585E+2	4.5845E-1
7.5607E+2	4.6947E-1
7.5628E+2	4.6672E-1
7.5650E+2	4.7149E-1
7.5672E+2	4.8135E-1
7.5693E+2	4.9068E-1
7.5715E+2	4.8686E-1
7.5737E+2	5.0662E-1
7.5758E+2	5.0819E-1
7.5780E+2	5.1434E-1
7.5802E+2	5.2616E-1
7.5823E+2	5.2720E-1
7.5845E+2	5.2476E-1
7.5866E+2	5.3082E-1
7.5888E+2	5.4857E-1
7.5910E+2	5.5856E-1
7.5931E+2	5.5809E-1
7.5953E+2	5.6815E-1
7.5975E+2	5.6342E-1
7.5996E+2	5.7374E-1
7.6018E+2	5.7750E-1
7.6040E+2	5.8777E-1
7.6061E+2	5.8175E-1
7.6083E+2	5.8841E-1
7.6104E+2	5.9419E-1
7.6126E+2	5.9341E-1
7.6148E+2	6.0115E-1
7.6169E+2	6.0814E-1
7.6191E+2	6.0966E-1
7.6212E+2	6.2239E-1
7.6234E+2	6.2097E-1
7.6256E+2	6.3095E-1
7.6277E+2	6.4752E-1
7.6299E+2	6.4114E-1
7.6320E+2	6.5537E-1
7.6342E+2	6.6389E-1
7.6364E+2	6.7416E-1
7.6385E+2	6.8692E-1
7.6407E+2	6.8798E-1
7.6428E+2	6.9594E-1
7.6450E+2	7.0157E-1
7.6472E+2	7.0087E-1
7.6493E+2	7.0895E-1
7.6515E+2	7.0089E-1
7.6536E+2	7.1453E-1
7.6558E+2	7.1371E-1
7.6579E+2	7.1477E-1
7.6601E+2	7.2480E-1
7.6623E+2	7.2574E-1
7.6644E+2	7.2438E-1
7.6666E+2	7.3143E-1
7.6687E+2	7.3024E-1
7.6709E+2	7.3685E-1
7.6730E+2	7.4636E-1
7.6752E+2	7.5207E-1
7.6774E+2	7.5314E-1
7.6795E+2	7.5925E-1
7.6817E+2	7.7189E-1
7.6838E+2	7.7872E-1
7.6860E+2	7.8580E-1
7.6881E+2	7.8426E-1
7.6903E+2	7.9638E-1
7.6925E+2	7.9308E-1
7.6946E+2	8.0127E-1
7.6968E+2	8.1772E-1
7.6989E+2	8.0971E-1
7.7011E+2	8.0788E-1
7.7032E+2	8.1801E-1
7.7054E+2	8.1669E-1
7.7075E+2	8.2840E-1
7.7097E+2	8.1788E-1
7.7118E+2	8.2055E-1
7.7140E+2	8.2008E-1
7.7161E+2	8.2728E-1
7.7183E+2	8.2254E-1
7.7205E+2	8.1213E-1
7.7226E+2	8.2203E-1
7.7248E+2	8.1806E-1
7.7269E+2	8.2938E-1
7.7291E+2	8.3000E-1
7.7312E+2	8.3086E-1
7.7334E+2	8.3142E-1
7.7355E+2	8.3795E-1
7.7377E+2	8.4152E-1
7.7398E+2	8.4686E-1
7.7420E+2	8.4569E-1
7.7441E+2	8.5884E-1
7.7463E+2	8.6382E-1
7.7484E+2	8.6455E-1
7.7506E+2	8.6582E-1
7.7527E+2	8.6761E-1
7.7549E+2	8.6979E-1
7.7570E+2	8.6560E-1
7.7592E+2	8.7377E-1
7.7613E+2	8.6196E-1
7.7635E+2	8.6729E-1
7.7656E+2	8.5166E-1
7.7678E+2	8.6195E-1
7.7699E+2	8.5404E-1
7.7721E+2	8.4626E-1
7.7742E+2	8.5141E-1
7.7764E+2	8.4854E-1
7.7785E+2	8.4481E-1
7.7807E+2	8.3087E-1
7.7828E+2	8.3482E-1
7.7850E+2	8.2005E-1
7.7871E+2	8.3567E-1
7.7893E+2	8.3380E-1
7.7914E+2	8.2538E-1
7.7936E+2	8.2300E-1
7.7957E+2	8.2946E-1
7.7978E+2	8.3252E-1
7.8000E+2	8.2637E-1
7.8021E+2	8.2281E-1
7.8043E+2	8.2524E-1
7.8064E+2	8.1929E-1
7.8086E+2	8.1529E-1
7.8107E+2	8.1270E-1
7.8129E+2	8.1893E-1
7.8150E+2	8.1494E-1
7.8172E+2	8.0922E-1
7.8193E+2	8.0635E-1
7.8214E+2	7.9920E-1
7.8236E+2	7.9458E-1
7.8257E+2	7.8375E-1
7.8279E+2	7.9221E-1
7.8300E+2	7.8028E-1
7.8322E+2	7.6958E-1
7.8343E+2	7.6804E-1
7.8365E+2	7.6952E-1
7.8386E+2	7.5938E-1
7.8407E+2	7.5587E-1
7.8429E+2	7.5246E-1
7.8450E+2	7.6050E-1
7.8472E+2	7.4882E-1
7.8493E+2	7.3909E-1
7.8515E+2	7.4771E-1
7.8536E+2	7.3518E-1
7.8557E+2	7.3122E-1
7.8579E+2	7.3952E-1
7.8600E+2	7.3452E-1
7.8622E+2	7.3522E-1
7.8643E+2	7.3400E-1
7.8665E+2	7.2691E-1
7.8686E+2	7.2235E-1
7.8707E+2	7.2113E-1
7.8729E+2	7.0864E-1
7.8750E+2	7.0421E-1
7.8772E+2	7.0707E-1
7.8793E+2	6.9881E-1
7.8814E+2	6.9735E-1
7.8836E+2	6.9122E-1
7.8857E+2	6.8134E-1
7.8879E+2	6.6790E-1
7.8900E+2	6.6582E-1
7.8921E+2	6.6320E-1
7.8943E+2	6.5805E-1
7.8964E+2	6.4961E-1
7.8985E+2	6.4290E-1
7.9007E+2	6.3147E-1
7.9028E+2	6.3473E-1
7.9050E+2	6.2343E-1
7.9071E+2	6.2870E-1
7.9092E+2	6.1792E-1
7.9114E+2	6.2123E-1
7.9135E+2	6.1492E-1
7.9157E+2	6.1555E-1
7.9178E+2	6.1105E-1
7.9199E+2	6.0482E-1
7.9221E+2	6.0500E-1
7.9242E+2	5.9758E-1
7.9263E+2	5.8947E-1
7.9285E+2	5.8866E-1
7.9306E+2	5.8181E-1
7.9327E+2	5.8174E-1
7.9349E+2	5.7742E-1
7.9370E+2	5.7365E-1
7.9392E+2	5.5840E-1
7.9413E+2	5.5647E-1
7.9434E+2	5.5557E-1
7.9456E+2	5.3721E-1
7.9477E+2	5.3834E-1
7.9498E+2	5.3170E-1
7.9520E+2	5.2968E-1
7.9541E+2	5.1881E-1
7.9562E+2	5.1457E-1
7.9584E+2	5.0821E-1
7.9605E+2	5.0038E-1
7.9626E+2	5.0163E-1
7.9648E+2	4.8637E-1
7.9669E+2	4.8446E-1
7.9690E+2	4.7772E-1
7.9712E+2	4.7377E-1
7.9733E+2	4.7334E-1
7.9754E+2	4.6803E-1
7.9776E+2	4.6578E-1
7.9797E+2	4.6114E-1
7.9818E+2	4.5589E-1
7.9840E+2	4.5281E-1
7.9861E+2	4.5426E-1
7.9882E+2	4.4721E-1
7.9904E+2	4.4390E-1
7.9925E+2	4.3360E-1
7.9946E+2	4.2909E-1
7.9967E+2	4.2574E-1
7.9989E+2	4.2376E-1
8.0010E+2	4.1669E-1
8.0031E+2	4.1921E-1
8.0053E+2	4.0675E-1
8.0074E+2	4.0021E-1
8.0095E+2	3.9379E-1
8.0117E+2	3.9133E-1
8.0138E+2	3.7613E-1
8.0159E+2	3.7560E-1
8.0180E+2	3.7243E-1
8.0202E+2	3.6750E-1
8.0223E+2	3.5881E-1
8.0244E+2	3.5828E-1
8.0266E+2	3.4855E-1
8.0287E+2	3.4916E-1
8.0308E+2	3.4989E-1
8.0329E+2	3.4393E-1
8.0351E+2	3.3147E-1
8.0372E+2	3.3922E-1
8.0393E+2	3.2912E-1
8.0415E+2	3.3001E-1
8.0436E+2	3.2467E-1
8.0457E+2	3.2441E-1
8.0478E+2	3.1518E-1
8.0500E+2	3.1562E-1
8.0521E+2	3.0750E-1
8.0542E+2	3.0917E-1
8.0563E+2	3.0479E-1
8.0585E+2	2.9947E-1
8.0606E+2	2.9793E-1
8.0627E+2	2.8694E-1
8.0648E+2	2.8731E-1
8.0670E+2	2.8154E-1
8.0691E+2	2.8004E-1
8.0712E+2	2.7552E-1
8.0733E+2	2.7095E-1
8.0755E+2	2.6482E-1
8.0776E+2	2.5857E-1
8.0797E+2	2.5925E-1
8.0818E+2	2.4924E-1
8.0840E+2	2.4650E-1
8.0861E+2	2.4303E-1
8.0882E+2	2.3874E-1
8.0903E+2	2.3610E-1
8.0925E+2	2.3368E-1
8.0946E+2	2.3172E-1
8.0967E+2	2.3102E-1
8.0988E+2	2.2290E-1
8.1009E+2	2.2752E-1
8.1031E+2	2.1858E-1
8.1052E+2	2.1860E-1
8.1073E+2	2.1567E-1
8.1094E+2	2.1210E-1
8.1116E+2	2.0654E-1
8.1137E+2	2.0754E-1
8.1158E+2	2.0169E-1
8.1179E+2	2.0169E-1
8.1200E+2	1.9857E-1
8.1222E+2	1.9409E-1
8.1243E+2	1.9177E-1
8.1264E+2	1.8985E-1
8.1285E+2	1.8579E-1
8.1306E+2	1.8303E-1
8.1328E+2	1.7855E-1
8.1349E+2	1.7441E-1
8.1370E+2	1.6975E-1
8.1391E+2	1.6931E-1
8.1412E+2	1.7042E-1
8.1434E+2	1.6113E-1
8.1455E+2	1.5537E-1
8.1476E+2	1.5718E-1
8.1497E+2	1.5259E-1
8.1518E+2	1.5159E-1
8.1540E+2	1.4946E-1
8.1561E+2	1.4688E-1
8.1582E+2	1.4555E-1
8.1603E+2	1.4231E-1
8.1624E+2	1.3886E-1
8.1645E+2	1.4178E-1
8.1667E+2	1.4017E-1
8.1688E+2	1.3555E-1
8.1709E+2	1.3290E-1
8.1730E+2	1.3217E-1
8.1751E+2	1.3071E-1
8.1772E+2	1.2734E-1
8.1794E+2	1.2770E-1
8.1815E+2	1.2263E-1
8.1836E+2	1.2677E-1
8.1857E+2	1.2065E-1
8.1878E+2	1.2079E-1
8.1899E+2	1.1359E-1
8.1921E+2	1.1506E-1
8.1942E+2	1.1216E-1
8.1963E+2	1.1241E-1
8.1984E+2	1.0635E-1
8.2005E+2	1.1032E-1
8.2026E+2	1.0511E-1
8.2047E+2	9.9466E-2
8.2069E+2	1.0023E-1
8.2090E+2	9.8237E-2
8.2111E+2	9.3550E-2
8.2132E+2	9.8453E-2
8.2153E+2	9.1238E-2
8.2174E+2	8.7557E-2
8.2195E+2	8.8665E-2
8.2216E+2	8.9399E-2
8.2238E+2	8.7674E-2
8.2259E+2	8.7437E-2
8.2280E+2	8.2648E-2
8.2301E+2	8.5623E-2
8.2322E+2	8.4723E-2
8.2343E+2	8.3723E-2
8.2364E+2	8.3448E-2
8.2385E+2	8.2516E-2
8.2407E+2	7.6344E-2
8.2428E+2	7.7322E-2
8.2449E+2	7.5713E-2
8.2470E+2	7.3803E-2
8.2491E+2	7.3978E-2
8.2512E+2	7.3218E-2
8.2533E+2	7.2271E-2
8.2554E+2	6.7960E-2
8.2575E+2	6.6331E-2
8.2596E+2	6.5172E-2
8.2618E+2	6.5615E-2
8.2639E+2	6.5765E-2
8.2660E+2	6.1047E-2
8.2681E+2	6.1028E-2
8.2702E+2	6.1115E-2
8.2723E+2	5.8197E-2
8.2744E+2	5.6819E-2
8.2765E+2	5.4436E-2
8.2786E+2	5.6964E-2
8.2807E+2	5.2943E-2
8.2828E+2	5.2834E-2
8.2849E+2	5.0874E-2
8.2871E+2	5.1694E-2
8.2892E+2	5.0940E-2
8.2913E+2	5.1936E-2
8.2934E+2	4.9316E-2
8.2955E+2	5.1351E-2
8.2976E+2	5.0793E-2
8.2997E+2	4.8299E-2
8.3018E+2	4.5646E-2
8.3039E+2	4.4709E-2
8.3060E+2	4.4212E-2
8.3081E+2	4.5385E-2
8.3102E+2	4.2143E-2
8.3123E+2	4.4978E-2
8.3144E+2	4.1885E-2
8.3165E+2	4.1327E-2
8.3186E+2	4.1048E-2
8.3208E+2	4.0440E-2
8.3229E+2	4.0730E-2
8.3250E+2	4.0482E-2
8.3271E+2	3.9680E-2
8.3292E+2	3.7892E-2
8.3313E+2	3.6053E-2
8.3334E+2	3.6584E-2
8.3355E+2	3.7523E-2
8.3376E+2	3.5144E-2
8.3397E+2	3.5789E-2
8.3418E+2	3.4130E-2
8.3439E+2	3.2337E-2
8.3460E+2	3.3660E-2
8.3481E+2	3.5152E-2
8.3502E+2	3.1650E-2
8.3523E+2	3.0785E-2
8.3544E+2	2.9618E-2
8.3565E+2	2.9493E-2
8.3586E+2	3.1272E-2
8.3607E+2	3.0072E-2
8.3628E+2	2.8995E-2
8.3649E+2	2.9033E-2
8.3670E+2	2.9170E-2
8.3691E+2	2.6874E-2
8.3712E+2	2.8805E-2
8.3733E+2	2.5897E-2
8.3754E+2	2.7090E-2
8.3775E+2	2.7320E-2
8.3796E+2	2.4817E-2
8.3817E+2	2.3722E-2
8.3838E+2	2.4671E-2
8.3859E+2	2.5661E-2
8.3880E+2	2.2794E-2
8.3901E+2	2.3309E-2
8.3922E+2	2.3390E-2
8.3943E+2	2.3546E-2
8.3964E+2	2.2956E-2
8.3985E+2	2.1453E-2
8.4006E+2	2.1732E-2
8.4027E+2	2.1468E-2
8.4048E+2	2.0058E-2
8.4069E+2	2.1256E-2
8.4090E+2	2.1430E-2
8.4111E+2	1.9241E-2
8.4132E+2	2.0814E-2
8.4153E+2	1.9666E-2
8.4174E+2	1.8571E-2
8.4195E+2	1.8099E-2
8.4216E+2	1.8049E-2
8.4237E+2	1.8618E-2
8.4258E+2	1.7582E-2
8.4279E+2	1.7919E-2
8.4300E+2	1.6750E-2
8.4321E+2	1.6015E-2
8.4342E+2	1.8398E-2
8.4362E+2	1.5496E-2
8.4383E+2	1.6801E-2
8.4404E+2	1.5392E-2
8.4425E+2	1.7134E-2
8.4446E+2	1.2980E-2
8.4467E+2	1.3606E-2
8.4488E+2	1.6816E-2
8.4509E+2	1.4085E-2
8.4530E+2	1.5124E-2
8.4551E+2	1.4914E-2
8.4572E+2	1.5435E-2
8.4593E+2	1.4731E-2
8.4614E+2	1.4407E-2
8.4635E+2	1.3433E-2
8.4656E+2	1.5288E-2
8.4677E+2	1.0664E-2
8.4697E+2	1.2054E-2
8.4718E+2	1.2575E-2
8.4739E+2	1.2315E-2
8.4760E+2	1.2221E-2
8.4781E+2	9.3816E-3
8.4802E+2	1.1983E-2
8.4823E+2	1.2331E-2
8.4844E+2	1.0578E-2
8.4865E+2	1.2702E-2
8.4886E+2	1.1093E-2
8.4907E+2	1.1517E-2
8.4928E+2	1.3031E-2
8.4948E+2	1.1451E-2
8.4969E+2	1.0285E-2
8.4990E+2	1.2068E-2
8.5011E+2	9.8637E-3
8.5032E+2	1.0597E-2
8.5053E+2	8.9669E-3
8.5074E+2	9.1381E-3
8.5095E+2	8.6096E-3
8.5116E+2	8.7810E-3
8.5137E+2	8.4536E-3
8.5157E+2	1.0237E-2
8.5178E+2	1.0413E-2
8.5199E+2	8.3313E-3
8.5220E+2	1.0429E-2
8.5241E+2	7.6307E-3
8.5262E+2	7.0742E-3
8.5283E+2	8.6387E-3
8.5304E+2	8.3286E-3
8.5324E+2	7.8180E-3
8.5345E+2	9.8752E-3
8.5366E+2	8.2873E-3
8.5387E+2	9.2899E-3
8.5408E+2	9.0316E-3
8.5429E+2	8.8937E-3
8.5450E+2	7.7588E-3
8.5471E+2	6.4521E-3
8.5491E+2	6.2399E-3
8.5512E+2	7.8440E-3
8.5533E+2	8.7434E-3
8.5554E+2	7.4827E-3
8.5575E+2	5.7179E-3
8.5596E+2	7.6486E-3
8.5617E+2	7.7975E-3
8.5637E+2	7.1672E-3
8.5658E+2	6.6515E-3
8.5679E+2	6.0556E-3
8.5700E+2	6.6744E-3
8.5721E+2	8.7999E-3
8.5742E+2	6.5140E-3
8.5762E+2	5.1219E-3
8.5783E+2	9.1381E-3
8.5804E+2	6.5600E-3
8.5825E+2	5.3054E-3
8.5846E+2	6.2681E-3
8.5867E+2	5.8785E-3
8.5887E+2	4.6984E-3
8.5908E+2	6.0622E-3
8.5929E+2	6.5723E-3
8.5950E+2	4.7905E-3
8.5971E+2	6.5442E-3
8.5992E+2	5.9828E-3
8.6012E+2	4.1778E-3
8.6033E+2	4.6652E-3
8.6054E+2	7.1127E-3
8.6075E+2	4.8605E-3
8.6096E+2	4.7003E-3
8.6116E+2	6.1794E-3
8.6137E+2	5.5778E-3
8.6158E+2	4.0016E-3
8.6179E+2	5.2804E-3
8.6200E+2	5.8771E-3
8.6220E+2	2.7696E-3
8.6241E+2	5.0522E-3
8.6262E+2	3.7163E-3
8.6283E+2	5.6093E-3
8.6304E+2	3.2122E-3
8.6324E+2	5.4898E-3
8.6345E+2	4.6757E-3
8.6366E+2	4.5727E-3
8.6387E+2	5.7952E-3
8.6408E+2	6.4844E-3
8.6428E+2	3.2999E-3
8.6449E+2	5.9749E-3
8.6470E+2	3.5015E-3
8.6491E+2	2.8590E-3
8.6511E+2	1.3895E-3
8.6532E+2	2.8539E-3
8.6553E+2	6.0702E-3
8.6574E+2	2.7282E-3
8.6595E+2	4.1359E-3
8.6615E+2	5.0212E-3
8.6636E+2	5.0733E-3
8.6657E+2	4.7062E-3
8.6678E+2	4.4195E-3
8.6698E+2	2.7647E-3
8.6719E+2	3.2997E-3
8.6740E+2	4.2431E-3
8.6761E+2	3.8585E-3
8.6781E+2	2.7548E-3
8.6802E+2	4.6592E-3
8.6823E+2	3.3655E-3
8.6844E+2	1.9391E-3
8.6864E+2	4.2011E-3
8.6885E+2	3.9255E-3
8.6906E+2	3.1085E-3
8.6927E+2	3.7538E-3
8.6947E+2	3.3744E-3
8.6968E+2	3.1216E-3
8.6989E+2	2.3618E-3
8.7010E+2	1.5498E-3
8.7030E+2	3.0945E-3
8.7051E+2	4.0288E-3
8.7072E+2	2.9631E-3
8.7093E+2	2.9694E-3
8.7113E+2	1.9377E-3
8.7134E+2	3.2590E-3
8.7155E+2	3.3116E-3
8.7175E+2	3.6354E-3
8.7196E+2	4.9229E-3
8.7217E+2	2.2859E-3
8.7238E+2	1.9515E-3
8.7258E+2	2.8701E-3
8.7279E+2	2.9920E-3
8.7300E+2	3.6513E-3
8.7320E+2	2.0746E-3
8.7341E+2	2.8265E-3
8.7362E+2	2.0640E-3
8.7383E+2	1.9546E-3
8.7403E+2	2.5855E-3
8.7424E+2	1.8224E-3
8.7445E+2	3.6515E-3
8.7465E+2	3.1836E-3
8.7486E+2	3.1494E-3
8.7507E+2	2.5305E-3
8.7527E+2	3.7185E-3
8.7548E+2	2.1957E-3
8.7569E+2	1.0721E-3
8.7590E+2	1.6346E-3
8.7610E+2	2.2264E-3
8.7631E+2	2.1748E-3
8.7652E+2	1.8390E-3
8.7672E+2	2.9536E-3
8.7693E+2	1.4801E-3
8.7714E+2	2.5720E-3
8.7734E+2	3.3103E-3
8.7755E+2	3.5436E-3
8.7776E+2	2.4985E-3
8.7796E+2	2.3363E-3
8.7817E+2	3.4183E-3
8.7838E+2	2.6226E-3
8.7858E+2	2.0417E-3
8.7879E+2	9.7753E-4
8.7900E+2	1.7461E-5
8.7920E+2	1.0887E-3
8.7941E+2	2.8712E-3
8.7962E+2	4.2120E-3
8.7982E+2	1.7483E-4
8.8003E+2	2.9264E-3
8.8024E+2	3.9711E-3
8.8044E+2	3.4649E-3
8.8065E+2	2.3107E-3
8.8086E+2	1.3250E-3
8.8106E+2	8.2903E-4
8.8127E+2	4.2047E-3
8.8148E+2	1.7993E-3
8.8168E+2	8.6488E-4
8.8189E+2	1.1282E-3
8.8209E+2	2.2689E-3
8.8230E+2	-2.3399E-4
8.8251E+2	2.5690E-3
8.8271E+2	1.4869E-3
8.8292E+2	1.5928E-3
8.8313E+2	3.4621E-3
8.8333E+2	3.2172E-3
8.8354E+2	2.6908E-3
8.8374E+2	2.6976E-3
8.8395E+2	2.2879E-3
8.8416E+2	3.2273E-4
8.8436E+2	1.3559E-3
8.8457E+2	2.9360E-3
8.8478E+2	1.6800E-3
8.8498E+2	6.4640E-4
8.8519E+2	7.5246E-4
8.8539E+2	1.6172E-3
8.8560E+2	2.6356E-3
8.8581E+2	5.5322E-4
8.8601E+2	2.4257E-3
8.8622E+2	8.5993E-4
8.8642E+2	5.1852E-4
8.8663E+2	3.0062E-3
8.8684E+2	2.0639E-4
8.8704E+2	2.2358E-3
