PLQY measurement:
Date: 	22.03.2023 16:28:53
Peak emission wavelength (nm): 769
 PLQY = 	 	8.19E-3
absorded light fraction (%): 91
MAYA saturard: FALSE
USB2000 saturaed: FALSE
wavelength	corrected total emission spec
6.5149E+2	1.3351E-2
6.5172E+2	1.7030E-2
6.5194E+2	2.3479E-2
6.5217E+2	1.8915E-2
6.5239E+2	1.5026E-2
6.5262E+2	1.7231E-2
6.5284E+2	1.8258E-2
6.5307E+2	1.7825E-2
6.5329E+2	1.5963E-2
6.5352E+2	2.3957E-2
6.5374E+2	2.3846E-2
6.5396E+2	2.3511E-2
6.5419E+2	1.7518E-2
6.5441E+2	2.1106E-2
6.5464E+2	2.1432E-2
6.5486E+2	2.2717E-2
6.5509E+2	1.6419E-2
6.5531E+2	1.7044E-2
6.5554E+2	1.6332E-2
6.5576E+2	2.0586E-2
6.5598E+2	2.1262E-2
6.5621E+2	2.2862E-2
6.5643E+2	2.5066E-2
6.5666E+2	1.6937E-2
6.5688E+2	2.2083E-2
6.5711E+2	1.8837E-2
6.5733E+2	2.6048E-2
6.5755E+2	1.3533E-2
6.5778E+2	2.4696E-2
6.5800E+2	1.7969E-2
6.5823E+2	2.4181E-2
6.5845E+2	1.6451E-2
6.5867E+2	1.8574E-2
6.5890E+2	2.6617E-2
6.5912E+2	1.3428E-2
6.5935E+2	2.2514E-2
6.5957E+2	2.2510E-2
6.5980E+2	2.2568E-2
6.6002E+2	1.6266E-2
6.6024E+2	2.2114E-2
6.6047E+2	1.9583E-2
6.6069E+2	1.9973E-2
6.6092E+2	2.4574E-2
6.6114E+2	1.2455E-2
6.6136E+2	1.9399E-2
6.6159E+2	2.7040E-2
6.6181E+2	2.1740E-2
6.6204E+2	2.9537E-2
6.6226E+2	2.3691E-2
6.6248E+2	2.2360E-2
6.6271E+2	2.1479E-2
6.6293E+2	1.9037E-2
6.6315E+2	2.1195E-2
6.6338E+2	1.8010E-2
6.6360E+2	2.1609E-2
6.6383E+2	1.7080E-2
6.6405E+2	2.0277E-2
6.6427E+2	1.9713E-2
6.6450E+2	1.2435E-2
6.6472E+2	2.0479E-2
6.6494E+2	2.4260E-2
6.6517E+2	1.7144E-2
6.6539E+2	1.4982E-2
6.6562E+2	1.9333E-2
6.6584E+2	2.3811E-2
6.6606E+2	1.6038E-2
6.6629E+2	2.2632E-2
6.6651E+2	2.0835E-2
6.6673E+2	1.6697E-2
6.6696E+2	2.7502E-2
6.6718E+2	1.7203E-2
6.6740E+2	1.9574E-2
6.6763E+2	2.3776E-2
6.6785E+2	2.1802E-2
6.6807E+2	1.9563E-2
6.6830E+2	2.1587E-2
6.6852E+2	2.7279E-2
6.6874E+2	1.8702E-2
6.6897E+2	1.5488E-2
6.6919E+2	1.9179E-2
6.6941E+2	2.0720E-2
6.6964E+2	2.0498E-2
6.6986E+2	1.8991E-2
6.7008E+2	1.7808E-2
6.7031E+2	2.0934E-2
6.7053E+2	1.4246E-2
6.7075E+2	1.5239E-2
6.7098E+2	2.0993E-2
6.7120E+2	1.6981E-2
6.7142E+2	1.4160E-2
6.7165E+2	1.6371E-2
6.7187E+2	1.6222E-2
6.7209E+2	1.5745E-2
6.7232E+2	1.6879E-2
6.7254E+2	1.5815E-2
6.7276E+2	2.7215E-2
6.7298E+2	1.7698E-2
6.7321E+2	2.2065E-2
6.7343E+2	1.6324E-2
6.7365E+2	1.5888E-2
6.7388E+2	1.7454E-2
6.7410E+2	1.7758E-2
6.7432E+2	2.1261E-2
6.7455E+2	1.9048E-2
6.7477E+2	1.9121E-2
6.7499E+2	1.7962E-2
6.7521E+2	1.9712E-2
6.7544E+2	1.7410E-2
6.7566E+2	2.0032E-2
6.7588E+2	1.5516E-2
6.7611E+2	1.8477E-2
6.7633E+2	2.1648E-2
6.7655E+2	1.5379E-2
6.7677E+2	1.7712E-2
6.7700E+2	1.7242E-2
6.7722E+2	2.0395E-2
6.7744E+2	1.9683E-2
6.7766E+2	2.0105E-2
6.7789E+2	2.2605E-2
6.7811E+2	2.1691E-2
6.7833E+2	1.6580E-2
6.7856E+2	1.4873E-2
6.7878E+2	2.0965E-2
6.7900E+2	2.1922E-2
6.7922E+2	1.7757E-2
6.7945E+2	2.1106E-2
6.7967E+2	2.6603E-2
6.7989E+2	1.7951E-2
6.8011E+2	2.5938E-2
6.8034E+2	2.6253E-2
6.8056E+2	1.9113E-2
6.8078E+2	1.5569E-2
6.8100E+2	1.8472E-2
6.8123E+2	2.3527E-2
6.8145E+2	2.5417E-2
6.8167E+2	1.9905E-2
6.8189E+2	1.6587E-2
6.8212E+2	2.2328E-2
6.8234E+2	2.1991E-2
6.8256E+2	2.0648E-2
6.8278E+2	1.7718E-2
6.8300E+2	2.1653E-2
6.8323E+2	2.4370E-2
6.8345E+2	2.6852E-2
6.8367E+2	1.9359E-2
6.8389E+2	1.8689E-2
6.8412E+2	2.0639E-2
6.8434E+2	1.3708E-2
6.8456E+2	2.2513E-2
6.8478E+2	2.1089E-2
6.8500E+2	1.9926E-2
6.8523E+2	1.5489E-2
6.8545E+2	2.0760E-2
6.8567E+2	1.8518E-2
6.8589E+2	1.7734E-2
6.8611E+2	2.1665E-2
6.8634E+2	2.2677E-2
6.8656E+2	1.7258E-2
6.8678E+2	2.2143E-2
6.8700E+2	2.6868E-2
6.8722E+2	2.3731E-2
6.8745E+2	2.0304E-2
6.8767E+2	2.1733E-2
6.8789E+2	2.3950E-2
6.8811E+2	1.4822E-2
6.8833E+2	2.0600E-2
6.8856E+2	1.9558E-2
6.8878E+2	2.2374E-2
6.8900E+2	1.7253E-2
6.8922E+2	2.8122E-2
6.8944E+2	2.3910E-2
6.8966E+2	2.1683E-2
6.8989E+2	2.1618E-2
6.9011E+2	2.2041E-2
6.9033E+2	2.5280E-2
6.9055E+2	2.1454E-2
6.9077E+2	2.2366E-2
6.9099E+2	2.6624E-2
6.9122E+2	2.2079E-2
6.9144E+2	2.0721E-2
6.9166E+2	2.2840E-2
6.9188E+2	2.2774E-2
6.9210E+2	2.1000E-2
6.9232E+2	2.5611E-2
6.9255E+2	2.5738E-2
6.9277E+2	2.2619E-2
6.9299E+2	2.4952E-2
6.9321E+2	2.0306E-2
6.9343E+2	2.6077E-2
6.9365E+2	2.5979E-2
6.9387E+2	2.2490E-2
6.9410E+2	2.3371E-2
6.9432E+2	2.4126E-2
6.9454E+2	2.4162E-2
6.9476E+2	2.2663E-2
6.9498E+2	2.6496E-2
6.9520E+2	2.7582E-2
6.9542E+2	2.7430E-2
6.9565E+2	2.2392E-2
6.9587E+2	2.5244E-2
6.9609E+2	3.1196E-2
6.9631E+2	2.2755E-2
6.9653E+2	2.9524E-2
6.9675E+2	2.6548E-2
6.9697E+2	2.9975E-2
6.9719E+2	2.7562E-2
6.9742E+2	2.3454E-2
6.9764E+2	2.3017E-2
6.9786E+2	2.6603E-2
6.9808E+2	2.6279E-2
6.9830E+2	2.6200E-2
6.9852E+2	3.2094E-2
6.9874E+2	2.8421E-2
6.9896E+2	2.4699E-2
6.9918E+2	2.4431E-2
6.9941E+2	2.9577E-2
6.9963E+2	2.8432E-2
6.9985E+2	2.8821E-2
7.0007E+2	3.1138E-2
7.0029E+2	3.2389E-2
7.0051E+2	3.7943E-2
7.0073E+2	3.2878E-2
7.0095E+2	3.1812E-2
7.0117E+2	3.1092E-2
7.0139E+2	3.2879E-2
7.0161E+2	3.2462E-2
7.0184E+2	3.1317E-2
7.0206E+2	3.3298E-2
7.0228E+2	3.1459E-2
7.0250E+2	3.3748E-2
7.0272E+2	3.2116E-2
7.0294E+2	3.5922E-2
7.0316E+2	3.1513E-2
7.0338E+2	3.2149E-2
7.0360E+2	3.6566E-2
7.0382E+2	4.3412E-2
7.0404E+2	3.4941E-2
7.0426E+2	3.8062E-2
7.0448E+2	3.7471E-2
7.0470E+2	3.5789E-2
7.0492E+2	3.5798E-2
7.0515E+2	3.7146E-2
7.0537E+2	3.6227E-2
7.0559E+2	3.4247E-2
7.0581E+2	3.5045E-2
7.0603E+2	3.3196E-2
7.0625E+2	4.0021E-2
7.0647E+2	3.8793E-2
7.0669E+2	3.6252E-2
7.0691E+2	3.9960E-2
7.0713E+2	4.0686E-2
7.0735E+2	4.5827E-2
7.0757E+2	3.8126E-2
7.0779E+2	4.2758E-2
7.0801E+2	4.2311E-2
7.0823E+2	3.6689E-2
7.0845E+2	4.5636E-2
7.0867E+2	4.3111E-2
7.0889E+2	4.6979E-2
7.0911E+2	4.6169E-2
7.0933E+2	5.2783E-2
7.0955E+2	4.8565E-2
7.0977E+2	4.8379E-2
7.0999E+2	4.7511E-2
7.1021E+2	4.6601E-2
7.1043E+2	4.7831E-2
7.1065E+2	5.2279E-2
7.1087E+2	4.7493E-2
7.1109E+2	5.4898E-2
7.1131E+2	5.1154E-2
7.1153E+2	5.2849E-2
7.1175E+2	4.9686E-2
7.1197E+2	5.4014E-2
7.1219E+2	5.6189E-2
7.1241E+2	5.9306E-2
7.1263E+2	5.5658E-2
7.1285E+2	6.3636E-2
7.1307E+2	6.0200E-2
7.1329E+2	5.9343E-2
7.1351E+2	6.1112E-2
7.1373E+2	6.1241E-2
7.1395E+2	6.0138E-2
7.1417E+2	6.2022E-2
7.1439E+2	6.7273E-2
7.1461E+2	6.9542E-2
7.1483E+2	6.2031E-2
7.1505E+2	6.4975E-2
7.1527E+2	6.6400E-2
7.1549E+2	6.6878E-2
7.1571E+2	7.0458E-2
7.1593E+2	6.7300E-2
7.1615E+2	6.9786E-2
7.1637E+2	7.3707E-2
7.1659E+2	7.2215E-2
7.1681E+2	7.4349E-2
7.1703E+2	7.6485E-2
7.1725E+2	7.7829E-2
7.1747E+2	7.9173E-2
7.1769E+2	7.4740E-2
7.1791E+2	7.9337E-2
7.1813E+2	8.1337E-2
7.1835E+2	7.9768E-2
7.1857E+2	8.3207E-2
7.1879E+2	8.5938E-2
7.1901E+2	8.7939E-2
7.1923E+2	9.0156E-2
7.1944E+2	8.6410E-2
7.1966E+2	9.2770E-2
7.1988E+2	8.9031E-2
7.2010E+2	9.4179E-2
7.2032E+2	9.0762E-2
7.2054E+2	9.7911E-2
7.2076E+2	9.7687E-2
7.2098E+2	1.0143E-1
7.2120E+2	1.0261E-1
7.2142E+2	9.7620E-2
7.2164E+2	1.0672E-1
7.2186E+2	1.0204E-1
7.2208E+2	1.0479E-1
7.2230E+2	1.0530E-1
7.2252E+2	1.0867E-1
7.2273E+2	1.0891E-1
7.2295E+2	1.1718E-1
7.2317E+2	1.1704E-1
7.2339E+2	1.1304E-1
7.2361E+2	1.1681E-1
7.2383E+2	1.1829E-1
7.2405E+2	1.1895E-1
7.2427E+2	1.2527E-1
7.2449E+2	1.2121E-1
7.2471E+2	1.2234E-1
7.2493E+2	1.2532E-1
7.2514E+2	1.2839E-1
7.2536E+2	1.2822E-1
7.2558E+2	1.2884E-1
7.2580E+2	1.3152E-1
7.2602E+2	1.3631E-1
7.2624E+2	1.3720E-1
7.2646E+2	1.4677E-1
7.2668E+2	1.4414E-1
7.2690E+2	1.4289E-1
7.2711E+2	1.4576E-1
7.2733E+2	1.4438E-1
7.2755E+2	1.4997E-1
7.2777E+2	1.5185E-1
7.2799E+2	1.5543E-1
7.2821E+2	1.6304E-1
7.2843E+2	1.6688E-1
7.2865E+2	1.6611E-1
7.2886E+2	1.6462E-1
7.2908E+2	1.7167E-1
7.2930E+2	1.7086E-1
7.2952E+2	1.7788E-1
7.2974E+2	1.7612E-1
7.2996E+2	1.8083E-1
7.3018E+2	1.8108E-1
7.3039E+2	1.8871E-1
7.3061E+2	1.9145E-1
7.3083E+2	1.8716E-1
7.3105E+2	1.8336E-1
7.3127E+2	1.9869E-1
7.3149E+2	1.9932E-1
7.3171E+2	2.0842E-1
7.3192E+2	2.0023E-1
7.3214E+2	2.1222E-1
7.3236E+2	2.0756E-1
7.3258E+2	2.1445E-1
7.3280E+2	2.1945E-1
7.3302E+2	2.2424E-1
7.3323E+2	2.2192E-1
7.3345E+2	2.3065E-1
7.3367E+2	2.3724E-1
7.3389E+2	2.4038E-1
7.3411E+2	2.3634E-1
7.3433E+2	2.3569E-1
7.3454E+2	2.4831E-1
7.3476E+2	2.4007E-1
7.3498E+2	2.5608E-1
7.3520E+2	2.6343E-1
7.3542E+2	2.5776E-1
7.3564E+2	2.6803E-1
7.3585E+2	2.6766E-1
7.3607E+2	2.7474E-1
7.3629E+2	2.7718E-1
7.3651E+2	2.7887E-1
7.3673E+2	2.8518E-1
7.3694E+2	2.9625E-1
7.3716E+2	2.9312E-1
7.3738E+2	3.0318E-1
7.3760E+2	3.0918E-1
7.3782E+2	3.2468E-1
7.3803E+2	3.2140E-1
7.3825E+2	3.2899E-1
7.3847E+2	3.3333E-1
7.3869E+2	3.3133E-1
7.3891E+2	3.3273E-1
7.3912E+2	3.3699E-1
7.3934E+2	3.4782E-1
7.3956E+2	3.5460E-1
7.3978E+2	3.4984E-1
7.4000E+2	3.5385E-1
7.4021E+2	3.6267E-1
7.4043E+2	3.6680E-1
7.4065E+2	3.7412E-1
7.4087E+2	3.7906E-1
7.4108E+2	3.9138E-1
7.4130E+2	3.8830E-1
7.4152E+2	4.0380E-1
7.4174E+2	4.0626E-1
7.4196E+2	4.0842E-1
7.4217E+2	4.2525E-1
7.4239E+2	4.3531E-1
7.4261E+2	4.3918E-1
7.4283E+2	4.5009E-1
7.4304E+2	4.5518E-1
7.4326E+2	4.5459E-1
7.4348E+2	4.6420E-1
7.4370E+2	4.7536E-1
7.4391E+2	4.7778E-1
7.4413E+2	4.8202E-1
7.4435E+2	4.8433E-1
7.4457E+2	4.8821E-1
7.4478E+2	4.9242E-1
7.4500E+2	5.0147E-1
7.4522E+2	5.1250E-1
7.4544E+2	5.2009E-1
7.4565E+2	5.2156E-1
7.4587E+2	5.3389E-1
7.4609E+2	5.4543E-1
7.4631E+2	5.4856E-1
7.4652E+2	5.6840E-1
7.4674E+2	5.6659E-1
7.4696E+2	5.7029E-1
7.4717E+2	5.9494E-1
7.4739E+2	6.0810E-1
7.4761E+2	6.1413E-1
7.4783E+2	6.2185E-1
7.4804E+2	6.2436E-1
7.4826E+2	6.4166E-1
7.4848E+2	6.3491E-1
7.4869E+2	6.5935E-1
7.4891E+2	6.5752E-1
7.4913E+2	6.6499E-1
7.4935E+2	6.7462E-1
7.4956E+2	6.7460E-1
7.4978E+2	6.9647E-1
7.5000E+2	6.9327E-1
7.5021E+2	7.0778E-1
7.5043E+2	7.2336E-1
7.5065E+2	7.1601E-1
7.5087E+2	7.2524E-1
7.5108E+2	7.3672E-1
7.5130E+2	7.6364E-1
7.5152E+2	7.6039E-1
7.5173E+2	7.8066E-1
7.5195E+2	8.0422E-1
7.5217E+2	8.0314E-1
7.5238E+2	8.2427E-1
7.5260E+2	8.2758E-1
7.5282E+2	8.4001E-1
7.5303E+2	8.4740E-1
7.5325E+2	8.7308E-1
7.5347E+2	8.8447E-1
7.5368E+2	8.7662E-1
7.5390E+2	8.9550E-1
7.5412E+2	8.9594E-1
7.5433E+2	8.9426E-1
7.5455E+2	9.1525E-1
7.5477E+2	9.2630E-1
7.5498E+2	9.2298E-1
7.5520E+2	9.5116E-1
7.5542E+2	9.5346E-1
7.5563E+2	9.6584E-1
7.5585E+2	9.7718E-1
7.5607E+2	9.7613E-1
7.5628E+2	9.9799E-1
7.5650E+2	1.0004E+0
7.5672E+2	1.0183E+0
7.5693E+2	1.0320E+0
7.5715E+2	1.0377E+0
7.5737E+2	1.0542E+0
7.5758E+2	1.0747E+0
7.5780E+2	1.0859E+0
7.5802E+2	1.0940E+0
7.5823E+2	1.1092E+0
7.5845E+2	1.1229E+0
7.5866E+2	1.1383E+0
7.5888E+2	1.1424E+0
7.5910E+2	1.1419E+0
7.5931E+2	1.1567E+0
7.5953E+2	1.1682E+0
7.5975E+2	1.1585E+0
7.5996E+2	1.1709E+0
7.6018E+2	1.1704E+0
7.6040E+2	1.1829E+0
7.6061E+2	1.1949E+0
7.6083E+2	1.2079E+0
7.6104E+2	1.2048E+0
7.6126E+2	1.2231E+0
7.6148E+2	1.2323E+0
7.6169E+2	1.2466E+0
7.6191E+2	1.2440E+0
7.6212E+2	1.2606E+0
7.6234E+2	1.2645E+0
7.6256E+2	1.2988E+0
7.6277E+2	1.2907E+0
7.6299E+2	1.3154E+0
7.6320E+2	1.3139E+0
7.6342E+2	1.3126E+0
7.6364E+2	1.3345E+0
7.6385E+2	1.3400E+0
7.6407E+2	1.3448E+0
7.6428E+2	1.3635E+0
7.6450E+2	1.3659E+0
7.6472E+2	1.3694E+0
7.6493E+2	1.3814E+0
7.6515E+2	1.3721E+0
7.6536E+2	1.3550E+0
7.6558E+2	1.3641E+0
7.6579E+2	1.3893E+0
7.6601E+2	1.3798E+0
7.6623E+2	1.3859E+0
7.6644E+2	1.3799E+0
7.6666E+2	1.3880E+0
7.6687E+2	1.3791E+0
7.6709E+2	1.3897E+0
7.6730E+2	1.3932E+0
7.6752E+2	1.3970E+0
7.6774E+2	1.4014E+0
7.6795E+2	1.4361E+0
7.6817E+2	1.4223E+0
7.6838E+2	1.4326E+0
7.6860E+2	1.4306E+0
7.6881E+2	1.4383E+0
7.6903E+2	1.4376E+0
7.6925E+2	1.4496E+0
7.6946E+2	1.4579E+0
7.6968E+2	1.4572E+0
7.6989E+2	1.4519E+0
7.7011E+2	1.4544E+0
7.7032E+2	1.4509E+0
7.7054E+2	1.4541E+0
7.7075E+2	1.4356E+0
7.7097E+2	1.4406E+0
7.7118E+2	1.4323E+0
7.7140E+2	1.4327E+0
7.7161E+2	1.4353E+0
7.7183E+2	1.4363E+0
7.7205E+2	1.4340E+0
7.7226E+2	1.4133E+0
7.7248E+2	1.4210E+0
7.7269E+2	1.4195E+0
7.7291E+2	1.4259E+0
7.7312E+2	1.4154E+0
7.7334E+2	1.4209E+0
7.7355E+2	1.3995E+0
7.7377E+2	1.4200E+0
7.7398E+2	1.4325E+0
7.7420E+2	1.4191E+0
7.7441E+2	1.4229E+0
7.7463E+2	1.4371E+0
7.7484E+2	1.4412E+0
7.7506E+2	1.4345E+0
7.7527E+2	1.4416E+0
7.7549E+2	1.4254E+0
7.7570E+2	1.4164E+0
7.7592E+2	1.4113E+0
7.7613E+2	1.4110E+0
7.7635E+2	1.3985E+0
7.7656E+2	1.3822E+0
7.7678E+2	1.3927E+0
7.7699E+2	1.3669E+0
7.7721E+2	1.3535E+0
7.7742E+2	1.3511E+0
7.7764E+2	1.3470E+0
7.7785E+2	1.3357E+0
7.7807E+2	1.3375E+0
7.7828E+2	1.3254E+0
7.7850E+2	1.3183E+0
7.7871E+2	1.3169E+0
7.7893E+2	1.3037E+0
7.7914E+2	1.3118E+0
7.7936E+2	1.2972E+0
7.7957E+2	1.2951E+0
7.7978E+2	1.2975E+0
7.8000E+2	1.3026E+0
7.8021E+2	1.2862E+0
7.8043E+2	1.2735E+0
7.8064E+2	1.2825E+0
7.8086E+2	1.2837E+0
7.8107E+2	1.2709E+0
7.8129E+2	1.2829E+0
7.8150E+2	1.2591E+0
7.8172E+2	1.2436E+0
7.8193E+2	1.2420E+0
7.8214E+2	1.2407E+0
7.8236E+2	1.2307E+0
7.8257E+2	1.2186E+0
7.8279E+2	1.2079E+0
7.8300E+2	1.2033E+0
7.8322E+2	1.1841E+0
7.8343E+2	1.1722E+0
7.8365E+2	1.1645E+0
7.8386E+2	1.1618E+0
7.8407E+2	1.1603E+0
7.8429E+2	1.1516E+0
7.8450E+2	1.1420E+0
7.8472E+2	1.1461E+0
7.8493E+2	1.1301E+0
7.8515E+2	1.1333E+0
7.8536E+2	1.1251E+0
7.8557E+2	1.1364E+0
7.8579E+2	1.1153E+0
7.8600E+2	1.1026E+0
7.8622E+2	1.1131E+0
7.8643E+2	1.1041E+0
7.8665E+2	1.1063E+0
7.8686E+2	1.0966E+0
7.8707E+2	1.0885E+0
7.8729E+2	1.0836E+0
7.8750E+2	1.0733E+0
7.8772E+2	1.0614E+0
7.8793E+2	1.0527E+0
7.8814E+2	1.0359E+0
7.8836E+2	1.0361E+0
7.8857E+2	1.0250E+0
7.8879E+2	1.0158E+0
7.8900E+2	1.0104E+0
7.8921E+2	9.8699E-1
7.8943E+2	9.8230E-1
7.8964E+2	9.8232E-1
7.8985E+2	9.7677E-1
7.9007E+2	9.7153E-1
7.9028E+2	9.5616E-1
7.9050E+2	9.5233E-1
7.9071E+2	9.5661E-1
7.9092E+2	9.3949E-1
7.9114E+2	9.4111E-1
7.9135E+2	9.1771E-1
7.9157E+2	9.2065E-1
7.9178E+2	9.2180E-1
7.9199E+2	9.2114E-1
7.9221E+2	9.1411E-1
7.9242E+2	9.1240E-1
7.9263E+2	9.0296E-1
7.9285E+2	8.9523E-1
7.9306E+2	8.8083E-1
7.9327E+2	8.8183E-1
7.9349E+2	8.6659E-1
7.9370E+2	8.5994E-1
7.9392E+2	8.5182E-1
7.9413E+2	8.3471E-1
7.9434E+2	8.3403E-1
7.9456E+2	8.2023E-1
7.9477E+2	8.2527E-1
7.9498E+2	7.9923E-1
7.9520E+2	7.9961E-1
7.9541E+2	7.7881E-1
7.9562E+2	7.7298E-1
7.9584E+2	7.6812E-1
7.9605E+2	7.5172E-1
7.9626E+2	7.4610E-1
7.9648E+2	7.3965E-1
7.9669E+2	7.2856E-1
7.9690E+2	7.3120E-1
7.9712E+2	7.2373E-1
7.9733E+2	7.1573E-1
7.9754E+2	7.1078E-1
7.9776E+2	6.9342E-1
7.9797E+2	7.0512E-1
7.9818E+2	6.9980E-1
7.9840E+2	6.8844E-1
7.9861E+2	6.8216E-1
7.9882E+2	6.6863E-1
7.9904E+2	6.7256E-1
7.9925E+2	6.6938E-1
7.9946E+2	6.5284E-1
7.9967E+2	6.4083E-1
7.9989E+2	6.2928E-1
8.0010E+2	6.3328E-1
8.0031E+2	6.2940E-1
8.0053E+2	6.0994E-1
8.0074E+2	6.0067E-1
8.0095E+2	5.9551E-1
8.0117E+2	5.9082E-1
8.0138E+2	5.7482E-1
8.0159E+2	5.7272E-1
8.0180E+2	5.5513E-1
8.0202E+2	5.5184E-1
8.0223E+2	5.5513E-1
8.0244E+2	5.4406E-1
8.0266E+2	5.3821E-1
8.0287E+2	5.3164E-1
8.0308E+2	5.2418E-1
8.0329E+2	5.1484E-1
8.0351E+2	5.1663E-1
8.0372E+2	5.2352E-1
8.0393E+2	4.9918E-1
8.0415E+2	5.0678E-1
8.0436E+2	5.0259E-1
8.0457E+2	4.8562E-1
8.0478E+2	4.7995E-1
8.0500E+2	4.7505E-1
8.0521E+2	4.7384E-1
8.0542E+2	4.6508E-1
8.0563E+2	4.6063E-1
8.0585E+2	4.5339E-1
8.0606E+2	4.5240E-1
8.0627E+2	4.3977E-1
8.0648E+2	4.4206E-1
8.0670E+2	4.2368E-1
8.0691E+2	4.2668E-1
8.0712E+2	4.1085E-1
8.0733E+2	4.1615E-1
8.0755E+2	4.0232E-1
8.0776E+2	3.9719E-1
8.0797E+2	3.9271E-1
8.0818E+2	3.8380E-1
8.0840E+2	3.7481E-1
8.0861E+2	3.6329E-1
8.0882E+2	3.6339E-1
8.0903E+2	3.6788E-1
8.0925E+2	3.5812E-1
8.0946E+2	3.5328E-1
8.0967E+2	3.5191E-1
8.0988E+2	3.4773E-1
8.1009E+2	3.4129E-1
8.1031E+2	3.3059E-1
8.1052E+2	3.3869E-1
8.1073E+2	3.2282E-1
8.1094E+2	3.2382E-1
8.1116E+2	3.2574E-1
8.1137E+2	3.1763E-1
8.1158E+2	3.2041E-1
8.1179E+2	3.0794E-1
8.1200E+2	3.0244E-1
8.1222E+2	3.0016E-1
8.1243E+2	2.9708E-1
8.1264E+2	2.8844E-1
8.1285E+2	2.8254E-1
8.1306E+2	2.8745E-1
8.1328E+2	2.7831E-1
8.1349E+2	2.6875E-1
8.1370E+2	2.6545E-1
8.1391E+2	2.6069E-1
8.1412E+2	2.5831E-1
8.1434E+2	2.4834E-1
8.1455E+2	2.5270E-1
8.1476E+2	2.4569E-1
8.1497E+2	2.4767E-1
8.1518E+2	2.4114E-1
8.1540E+2	2.3214E-1
8.1561E+2	2.3650E-1
8.1582E+2	2.2501E-1
8.1603E+2	2.2003E-1
8.1624E+2	2.2869E-1
8.1645E+2	2.2368E-1
8.1667E+2	2.1994E-1
8.1688E+2	2.1640E-1
8.1709E+2	2.0683E-1
8.1730E+2	2.1160E-1
8.1751E+2	2.0461E-1
8.1772E+2	1.9957E-1
8.1794E+2	1.9865E-1
8.1815E+2	1.9908E-1
8.1836E+2	1.9375E-1
8.1857E+2	1.8938E-1
8.1878E+2	1.9038E-1
8.1899E+2	1.8544E-1
8.1921E+2	1.7849E-1
8.1942E+2	1.7705E-1
8.1963E+2	1.7575E-1
8.1984E+2	1.7206E-1
8.2005E+2	1.6848E-1
8.2026E+2	1.6559E-1
8.2047E+2	1.5844E-1
8.2069E+2	1.6211E-1
8.2090E+2	1.5324E-1
8.2111E+2	1.5489E-1
8.2132E+2	1.5121E-1
8.2153E+2	1.5309E-1
8.2174E+2	1.4361E-1
8.2195E+2	1.4316E-1
8.2216E+2	1.4468E-1
8.2238E+2	1.3582E-1
8.2259E+2	1.4237E-1
8.2280E+2	1.4308E-1
8.2301E+2	1.4527E-1
8.2322E+2	1.4515E-1
8.2343E+2	1.4391E-1
8.2364E+2	1.4226E-1
8.2385E+2	1.3857E-1
8.2407E+2	1.3556E-1
8.2428E+2	1.3386E-1
8.2449E+2	1.2813E-1
8.2470E+2	1.2529E-1
8.2491E+2	1.2679E-1
8.2512E+2	1.1854E-1
8.2533E+2	1.1638E-1
8.2554E+2	1.1275E-1
8.2575E+2	1.1543E-1
8.2596E+2	1.0717E-1
8.2618E+2	1.0962E-1
8.2639E+2	1.0897E-1
8.2660E+2	1.0574E-1
8.2681E+2	1.0343E-1
8.2702E+2	1.0133E-1
8.2723E+2	1.0250E-1
8.2744E+2	9.6175E-2
8.2765E+2	9.9852E-2
8.2786E+2	9.4298E-2
8.2807E+2	9.5425E-2
8.2828E+2	8.9794E-2
8.2849E+2	9.1029E-2
8.2871E+2	9.0306E-2
8.2892E+2	8.8867E-2
8.2913E+2	8.7553E-2
8.2934E+2	8.3734E-2
8.2955E+2	8.5145E-2
8.2976E+2	8.2574E-2
8.2997E+2	8.3263E-2
8.3018E+2	8.2674E-2
8.3039E+2	8.0012E-2
8.3060E+2	8.1301E-2
8.3081E+2	7.7764E-2
8.3102E+2	7.9457E-2
8.3123E+2	7.4232E-2
8.3144E+2	7.8909E-2
8.3165E+2	7.5449E-2
8.3186E+2	7.1116E-2
8.3208E+2	7.4807E-2
8.3229E+2	7.0294E-2
8.3250E+2	6.9493E-2
8.3271E+2	6.8161E-2
8.3292E+2	6.7689E-2
8.3313E+2	6.9680E-2
8.3334E+2	6.2663E-2
8.3355E+2	6.6100E-2
8.3376E+2	6.3567E-2
8.3397E+2	6.1414E-2
8.3418E+2	5.7832E-2
8.3439E+2	5.8827E-2
8.3460E+2	6.0497E-2
8.3481E+2	5.8266E-2
8.3502E+2	5.7381E-2
8.3523E+2	5.7707E-2
8.3544E+2	5.8539E-2
8.3565E+2	5.3329E-2
8.3586E+2	5.4330E-2
8.3607E+2	5.5792E-2
8.3628E+2	5.6101E-2
8.3649E+2	5.1939E-2
8.3670E+2	5.1395E-2
8.3691E+2	5.1572E-2
8.3712E+2	5.1813E-2
8.3733E+2	5.0540E-2
8.3754E+2	4.9755E-2
8.3775E+2	5.0020E-2
8.3796E+2	4.8040E-2
8.3817E+2	4.8724E-2
8.3838E+2	4.7784E-2
8.3859E+2	4.7418E-2
8.3880E+2	4.7499E-2
8.3901E+2	4.2675E-2
8.3922E+2	4.4662E-2
8.3943E+2	4.4784E-2
8.3964E+2	4.1521E-2
8.3985E+2	4.6318E-2
8.4006E+2	4.1898E-2
8.4027E+2	4.2265E-2
8.4048E+2	3.8781E-2
8.4069E+2	3.4461E-2
8.4090E+2	3.8977E-2
8.4111E+2	3.7512E-2
8.4132E+2	3.7521E-2
8.4153E+2	3.7086E-2
8.4174E+2	3.8255E-2
8.4195E+2	3.7012E-2
8.4216E+2	3.4650E-2
8.4237E+2	3.6076E-2
8.4258E+2	3.7166E-2
8.4279E+2	3.5047E-2
8.4300E+2	3.4279E-2
8.4321E+2	3.6146E-2
8.4342E+2	3.5493E-2
8.4362E+2	3.3608E-2
8.4383E+2	3.5347E-2
8.4404E+2	3.5318E-2
8.4425E+2	3.3779E-2
8.4446E+2	3.2739E-2
8.4467E+2	3.0828E-2
8.4488E+2	3.3522E-2
8.4509E+2	3.4357E-2
8.4530E+2	2.7785E-2
8.4551E+2	3.1814E-2
8.4572E+2	3.2982E-2
8.4593E+2	2.9911E-2
8.4614E+2	2.7169E-2
8.4635E+2	2.8867E-2
8.4656E+2	2.8937E-2
8.4677E+2	2.8589E-2
8.4697E+2	2.7471E-2
8.4718E+2	2.9076E-2
8.4739E+2	2.8520E-2
8.4760E+2	2.7442E-2
8.4781E+2	2.6295E-2
8.4802E+2	2.6085E-2
8.4823E+2	2.7776E-2
8.4844E+2	2.2018E-2
8.4865E+2	2.3181E-2
8.4886E+2	2.4430E-2
8.4907E+2	2.3217E-2
8.4928E+2	2.5356E-2
8.4948E+2	2.4515E-2
8.4969E+2	2.7669E-2
8.4990E+2	2.5726E-2
8.5011E+2	2.3388E-2
8.5032E+2	2.2858E-2
8.5053E+2	2.4617E-2
8.5074E+2	2.4558E-2
8.5095E+2	2.0586E-2
8.5116E+2	2.0143E-2
8.5137E+2	2.5126E-2
8.5157E+2	2.3059E-2
8.5178E+2	2.2255E-2
8.5199E+2	2.4283E-2
8.5220E+2	2.3175E-2
8.5241E+2	2.2846E-2
8.5262E+2	2.2805E-2
8.5283E+2	1.9450E-2
8.5304E+2	2.0251E-2
8.5324E+2	2.3242E-2
8.5345E+2	2.0347E-2
8.5366E+2	2.1630E-2
8.5387E+2	1.6992E-2
8.5408E+2	2.0149E-2
8.5429E+2	2.0819E-2
8.5450E+2	2.0205E-2
8.5471E+2	1.9637E-2
8.5491E+2	1.8634E-2
8.5512E+2	2.0025E-2
8.5533E+2	1.7630E-2
8.5554E+2	1.7693E-2
8.5575E+2	1.7881E-2
8.5596E+2	1.9829E-2
8.5617E+2	1.9055E-2
8.5637E+2	1.7726E-2
8.5658E+2	1.6454E-2
8.5679E+2	1.6975E-2
8.5700E+2	1.5955E-2
8.5721E+2	1.7021E-2
8.5742E+2	1.7285E-2
8.5762E+2	1.9439E-2
8.5783E+2	1.6855E-2
8.5804E+2	1.6649E-2
8.5825E+2	1.4965E-2
8.5846E+2	1.6822E-2
8.5867E+2	1.5298E-2
8.5887E+2	1.4479E-2
8.5908E+2	1.6863E-2
8.5929E+2	1.4222E-2
8.5950E+2	1.5701E-2
8.5971E+2	1.5942E-2
8.5992E+2	1.5628E-2
8.6012E+2	1.6064E-2
8.6033E+2	1.6844E-2
8.6054E+2	1.5206E-2
8.6075E+2	1.6135E-2
8.6096E+2	1.4783E-2
8.6116E+2	1.3597E-2
8.6137E+2	1.5214E-2
8.6158E+2	1.3885E-2
8.6179E+2	1.4414E-2
8.6200E+2	1.2144E-2
8.6220E+2	1.5585E-2
8.6241E+2	1.2880E-2
8.6262E+2	1.3690E-2
8.6283E+2	1.3421E-2
8.6304E+2	1.2665E-2
8.6324E+2	1.4863E-2
8.6345E+2	1.4348E-2
8.6366E+2	1.2766E-2
8.6387E+2	1.2480E-2
8.6408E+2	1.1947E-2
8.6428E+2	1.2092E-2
8.6449E+2	1.3924E-2
8.6470E+2	1.0792E-2
8.6491E+2	1.4341E-2
8.6511E+2	1.5290E-2
8.6532E+2	1.1128E-2
8.6553E+2	1.2726E-2
8.6574E+2	1.3038E-2
8.6595E+2	1.1977E-2
8.6615E+2	1.1111E-2
8.6636E+2	1.3077E-2
8.6657E+2	1.2849E-2
8.6678E+2	1.2873E-2
8.6698E+2	1.2364E-2
8.6719E+2	1.3659E-2
8.6740E+2	1.1298E-2
8.6761E+2	1.2375E-2
8.6781E+2	1.2796E-2
8.6802E+2	1.1890E-2
8.6823E+2	1.2829E-2
8.6844E+2	1.5593E-2
8.6864E+2	1.1118E-2
8.6885E+2	1.2882E-2
8.6906E+2	1.1622E-2
8.6927E+2	1.0524E-2
8.6947E+2	1.1569E-2
8.6968E+2	1.0810E-2
8.6989E+2	1.3186E-2
8.7010E+2	1.2894E-2
8.7030E+2	1.0839E-2
8.7051E+2	9.6253E-3
8.7072E+2	9.4369E-3
8.7093E+2	1.2604E-2
8.7113E+2	1.1130E-2
8.7134E+2	1.0665E-2
8.7155E+2	1.1643E-2
8.7175E+2	1.2164E-2
8.7196E+2	9.7651E-3
8.7217E+2	9.1377E-3
8.7238E+2	1.2171E-2
8.7258E+2	1.1948E-2
8.7279E+2	1.1818E-2
8.7300E+2	1.0850E-2
8.7320E+2	8.8646E-3
8.7341E+2	1.0543E-2
8.7362E+2	1.0291E-2
8.7383E+2	9.1483E-3
8.7403E+2	1.2563E-2
8.7424E+2	1.0547E-2
8.7445E+2	1.1973E-2
8.7465E+2	9.8460E-3
8.7486E+2	1.1405E-2
8.7507E+2	1.2149E-2
8.7527E+2	1.0733E-2
8.7548E+2	9.5824E-3
8.7569E+2	9.6023E-3
8.7590E+2	9.9410E-3
8.7610E+2	9.4682E-3
8.7631E+2	1.1501E-2
8.7652E+2	1.0245E-2
8.7672E+2	8.8782E-3
8.7693E+2	9.7223E-3
8.7714E+2	7.6290E-3
8.7734E+2	1.1098E-2
8.7755E+2	7.8367E-3
8.7776E+2	1.0255E-2
8.7796E+2	1.0862E-2
8.7817E+2	9.9934E-3
8.7838E+2	8.2169E-3
8.7858E+2	1.0860E-2
8.7879E+2	1.1149E-2
8.7900E+2	9.0682E-3
8.7920E+2	1.1289E-2
8.7941E+2	8.4972E-3
8.7962E+2	9.9737E-3
8.7982E+2	1.0437E-2
8.8003E+2	9.1114E-3
8.8024E+2	9.4117E-3
8.8044E+2	8.9248E-3
8.8065E+2	7.9999E-3
8.8086E+2	8.8138E-3
8.8106E+2	9.1135E-3
8.8127E+2	8.5788E-3
8.8148E+2	9.1016E-3
8.8168E+2	9.5079E-3
8.8189E+2	9.5520E-3
8.8209E+2	1.0801E-2
8.8230E+2	1.1665E-2
8.8251E+2	9.2283E-3
8.8271E+2	9.3252E-3
8.8292E+2	8.7780E-3
8.8313E+2	8.6054E-3
8.8333E+2	8.5147E-3
8.8354E+2	1.1531E-2
8.8374E+2	1.1037E-2
8.8395E+2	7.6851E-3
8.8416E+2	9.6586E-3
8.8436E+2	9.7379E-3
8.8457E+2	8.8842E-3
8.8478E+2	9.5278E-3
8.8498E+2	7.4042E-3
8.8519E+2	1.0258E-2
8.8539E+2	8.9447E-3
8.8560E+2	7.1362E-3
8.8581E+2	9.5284E-3
8.8601E+2	1.1057E-2
8.8622E+2	9.9775E-3
8.8642E+2	9.4512E-3
8.8663E+2	7.2739E-3
8.8684E+2	8.4503E-3
8.8704E+2	9.4920E-3
8.8725E+2	9.9562E-3
8.8745E+2	1.0108E-2
8.8766E+2	8.2798E-3
8.8787E+2	7.7273E-3
8.8807E+2	8.1443E-3
8.8828E+2	9.0937E-3
8.8848E+2	8.9614E-3
8.8869E+2	9.6871E-3
8.8890E+2	8.9038E-3
8.8910E+2	7.9008E-3
8.8931E+2	8.7159E-3
8.8951E+2	8.5774E-3
8.8972E+2	8.6107E-3
8.8992E+2	8.4839E-3
8.9013E+2	8.7251E-3
8.9034E+2	7.2800E-3
8.9054E+2	8.5545E-3
8.9075E+2	1.2576E-2
8.9095E+2	8.9546E-3
8.9116E+2	1.0510E-2
8.9136E+2	8.3359E-3
8.9157E+2	7.2325E-3
8.9177E+2	7.1703E-3
8.9198E+2	7.2927E-3
8.9219E+2	9.3823E-3
8.9239E+2	8.2357E-3
8.9260E+2	9.0211E-3
8.9280E+2	8.5836E-3
8.9301E+2	7.3932E-3
8.9321E+2	9.5117E-3
8.9342E+2	9.5282E-3
8.9362E+2	7.9240E-3
8.9383E+2	7.5688E-3
8.9404E+2	5.2678E-3
8.9424E+2	9.3308E-3
8.9445E+2	7.9572E-3
8.9465E+2	9.5437E-3
8.9486E+2	6.8842E-3
8.9506E+2	8.2789E-3
8.9527E+2	5.9481E-3
8.9547E+2	6.2874E-3
8.9568E+2	8.7958E-3
8.9588E+2	9.0346E-3
8.9609E+2	7.2409E-3
8.9629E+2	7.0099E-3
8.9650E+2	8.9760E-3
8.9670E+2	8.5890E-3
8.9691E+2	8.4427E-3
8.9711E+2	8.1878E-3
8.9732E+2	1.1021E-2
8.9752E+2	1.1721E-2
8.9773E+2	9.2753E-3
8.9793E+2	9.4976E-3
8.9814E+2	8.6623E-3
8.9834E+2	7.8685E-3
8.9855E+2	6.9952E-3
8.9875E+2	9.0876E-3
8.9896E+2	8.6426E-3
8.9916E+2	8.4163E-3
8.9937E+2	1.0221E-2
8.9957E+2	8.1887E-3
8.9978E+2	9.0124E-3
8.9998E+2	7.8514E-3
9.0019E+2	6.5494E-3
9.0039E+2	7.8051E-3
9.0060E+2	8.9285E-3
9.0080E+2	9.6027E-3
9.0101E+2	9.8333E-3
9.0121E+2	7.5602E-3
9.0142E+2	7.4547E-3
9.0162E+2	7.7088E-3
9.0183E+2	1.0160E-2
9.0203E+2	8.0715E-3
9.0224E+2	1.0159E-2
9.0244E+2	9.1125E-3
9.0265E+2	9.8614E-3
9.0285E+2	9.5559E-3
9.0306E+2	8.6595E-3
9.0326E+2	8.4299E-3
9.0346E+2	7.9385E-3
9.0367E+2	9.4245E-3
9.0387E+2	9.6625E-3
9.0408E+2	9.1370E-3
9.0428E+2	8.0998E-3
9.0449E+2	7.5237E-3
9.0469E+2	7.8293E-3
9.0490E+2	7.5460E-3
9.0510E+2	9.7621E-3
9.0531E+2	7.8707E-3
9.0551E+2	8.1780E-3
9.0571E+2	7.2714E-3
9.0592E+2	8.2148E-3
9.0612E+2	9.2378E-3
9.0633E+2	9.8933E-3
9.0653E+2	9.7830E-3
9.0674E+2	8.1045E-3
9.0694E+2	8.8764E-3
9.0714E+2	8.7171E-3
9.0735E+2	6.6405E-3
9.0755E+2	6.2729E-3
9.0776E+2	9.1031E-3
9.0796E+2	7.8411E-3
9.0817E+2	7.4368E-3
9.0837E+2	7.2592E-3
9.0857E+2	8.7846E-3
9.0878E+2	7.9024E-3
9.0898E+2	8.3251E-3
9.0919E+2	8.2149E-3
9.0939E+2	7.6268E-3
9.0959E+2	9.1154E-3
9.0980E+2	6.6405E-3
9.1000E+2	9.0848E-3
9.1021E+2	1.0978E-2
9.1041E+2	8.2639E-3
9.1061E+2	6.9284E-3
9.1082E+2	9.1583E-3
9.1102E+2	8.2333E-3
9.1123E+2	8.7785E-3
9.1143E+2	1.0304E-2
9.1163E+2	8.7540E-3
9.1184E+2	1.0616E-2
9.1204E+2	9.6974E-3
9.1225E+2	8.8214E-3
9.1245E+2	1.1180E-2
9.1265E+2	8.9194E-3
9.1286E+2	8.2517E-3
9.1306E+2	7.9699E-3
9.1327E+2	6.9101E-3
9.1347E+2	8.3252E-3
9.1367E+2	7.2348E-3
9.1388E+2	9.8568E-3
9.1408E+2	8.1721E-3
9.1428E+2	8.2089E-3
9.1449E+2	6.0464E-3
9.1469E+2	8.9379E-3
9.1490E+2	8.6561E-3
9.1510E+2	9.6975E-3
9.1530E+2	1.1260E-2
9.1551E+2	7.3023E-3
9.1571E+2	1.0261E-2
9.1591E+2	8.2273E-3
9.1612E+2	8.4969E-3
9.1632E+2	9.6057E-3
9.1652E+2	9.1463E-3
9.1673E+2	9.5812E-3
9.1693E+2	9.3056E-3
9.1713E+2	8.6501E-3
9.1734E+2	6.6223E-3
9.1754E+2	8.3560E-3
9.1774E+2	9.3730E-3
9.1795E+2	7.5168E-3
9.1815E+2	8.2458E-3
9.1835E+2	5.4523E-3
9.1856E+2	8.3806E-3
9.1876E+2	8.1907E-3
