PLQY measurement:
Date: 	29.03.2023 10:41:21
Peak emission wavelength (nm): 771
 PLQY = 	 	1.31E-3
absorded light fraction (%): 85
MAYA saturard: FALSE
USB2000 saturaed: FALSE
wavelength	corrected total emission spec
6.8456E+2	5.5128E-3
6.8478E+2	5.4644E-3
6.8500E+2	3.6419E-3
6.8523E+2	4.3041E-3
6.8545E+2	4.3383E-3
6.8567E+2	4.6225E-3
6.8589E+2	5.0331E-3
6.8611E+2	7.0323E-3
6.8634E+2	6.4535E-3
6.8656E+2	1.7106E-3
6.8678E+2	2.9212E-3
6.8700E+2	2.7653E-3
6.8722E+2	4.7518E-3
6.8745E+2	3.6056E-3
6.8767E+2	7.6642E-3
6.8789E+2	9.2956E-3
6.8811E+2	3.5622E-3
6.8833E+2	4.7277E-3
6.8856E+2	8.0244E-3
6.8878E+2	6.8060E-3
6.8900E+2	4.6388E-3
6.8922E+2	7.6365E-3
6.8944E+2	6.0418E-3
6.8966E+2	4.1559E-3
6.8989E+2	7.2642E-3
6.9011E+2	4.1040E-3
6.9033E+2	3.9222E-3
6.9055E+2	4.2506E-3
6.9077E+2	5.4108E-3
6.9099E+2	9.4141E-3
6.9122E+2	5.3129E-3
6.9144E+2	3.0648E-3
6.9166E+2	5.7200E-3
6.9188E+2	3.9196E-3
6.9210E+2	3.3430E-3
6.9232E+2	3.6682E-3
6.9255E+2	3.7675E-3
6.9277E+2	5.8329E-3
6.9299E+2	3.2953E-4
6.9321E+2	4.5403E-3
6.9343E+2	7.6983E-3
6.9365E+2	5.6915E-3
6.9387E+2	5.5014E-3
6.9410E+2	4.3943E-3
6.9432E+2	2.0497E-3
6.9454E+2	6.6204E-3
6.9476E+2	4.9177E-3
6.9498E+2	5.6526E-3
6.9520E+2	6.3442E-3
6.9542E+2	4.5069E-3
6.9565E+2	6.2831E-3
6.9587E+2	8.4147E-3
6.9609E+2	2.8618E-3
6.9631E+2	5.1481E-3
6.9653E+2	2.9292E-3
6.9675E+2	5.8482E-3
6.9697E+2	6.1487E-3
6.9719E+2	5.4101E-3
6.9742E+2	8.7584E-3
6.9764E+2	3.7980E-3
6.9786E+2	1.9338E-3
6.9808E+2	3.5836E-3
6.9830E+2	7.0670E-3
6.9852E+2	2.1531E-4
6.9874E+2	6.0433E-3
6.9896E+2	8.3677E-3
6.9918E+2	8.4713E-3
6.9941E+2	5.9910E-3
6.9963E+2	5.0507E-3
6.9985E+2	2.3077E-3
7.0007E+2	1.9406E-3
7.0029E+2	3.9892E-3
7.0051E+2	7.5911E-3
7.0073E+2	4.9853E-4
7.0095E+2	4.1927E-3
7.0117E+2	9.6182E-3
7.0139E+2	3.8959E-3
7.0161E+2	5.7716E-3
7.0184E+2	6.4661E-3
7.0206E+2	9.1452E-3
7.0228E+2	3.5009E-3
7.0250E+2	5.0708E-3
7.0272E+2	4.6195E-3
7.0294E+2	9.2841E-3
7.0316E+2	5.4114E-3
7.0338E+2	4.3656E-3
7.0360E+2	7.4598E-3
7.0382E+2	4.9116E-3
7.0404E+2	3.1510E-3
7.0426E+2	7.3233E-3
7.0448E+2	4.6824E-3
7.0470E+2	3.2943E-3
7.0492E+2	3.3489E-3
7.0515E+2	4.5498E-3
7.0537E+2	5.3009E-3
7.0559E+2	3.2129E-3
7.0581E+2	5.4784E-3
7.0603E+2	6.8598E-3
7.0625E+2	3.1964E-3
7.0647E+2	3.7167E-3
7.0669E+2	4.5718E-3
7.0691E+2	2.5265E-3
7.0713E+2	6.3884E-3
7.0735E+2	3.8951E-3
7.0757E+2	5.2162E-3
7.0779E+2	6.5244E-3
7.0801E+2	4.7170E-3
7.0823E+2	4.9918E-3
7.0845E+2	6.0079E-3
7.0867E+2	6.7185E-3
7.0889E+2	5.9679E-3
7.0911E+2	2.1343E-3
7.0933E+2	7.1993E-3
7.0955E+2	4.6041E-3
7.0977E+2	6.7463E-3
7.0999E+2	6.4677E-3
7.1021E+2	6.4329E-3
7.1043E+2	5.3881E-3
7.1065E+2	6.8623E-3
7.1087E+2	3.4618E-3
7.1109E+2	3.6876E-3
7.1131E+2	3.5657E-3
7.1153E+2	3.3751E-3
7.1175E+2	9.3139E-3
7.1197E+2	4.3988E-3
7.1219E+2	5.0455E-3
7.1241E+2	6.7536E-3
7.1263E+2	5.4047E-3
7.1285E+2	5.4864E-3
7.1307E+2	9.6041E-3
7.1329E+2	8.4630E-3
7.1351E+2	5.5639E-3
7.1373E+2	5.9620E-3
7.1395E+2	8.8820E-3
7.1417E+2	8.3291E-3
7.1439E+2	8.2371E-3
7.1461E+2	9.6417E-3
7.1483E+2	8.8938E-3
7.1505E+2	5.9486E-3
7.1527E+2	8.0268E-3
7.1549E+2	8.9880E-3
7.1571E+2	7.3967E-3
7.1593E+2	6.6363E-3
7.1615E+2	7.4373E-3
7.1637E+2	9.6526E-3
7.1659E+2	8.7826E-3
7.1681E+2	9.1107E-3
7.1703E+2	6.9481E-3
7.1725E+2	6.1959E-3
7.1747E+2	1.0386E-2
7.1769E+2	1.0473E-2
7.1791E+2	5.7612E-3
7.1813E+2	8.4728E-3
7.1835E+2	5.2478E-3
7.1857E+2	9.7666E-3
7.1879E+2	7.4829E-3
7.1901E+2	7.2637E-3
7.1923E+2	1.2738E-2
7.1944E+2	1.1944E-2
7.1966E+2	9.5255E-3
7.1988E+2	1.1237E-2
7.2010E+2	1.0365E-2
7.2032E+2	7.7111E-3
7.2054E+2	7.8484E-3
7.2076E+2	9.9549E-3
7.2098E+2	9.5884E-3
7.2120E+2	8.9293E-3
7.2142E+2	6.5994E-3
7.2164E+2	8.1598E-3
7.2186E+2	7.6225E-3
7.2208E+2	1.3723E-2
7.2230E+2	8.9323E-3
7.2252E+2	1.0224E-2
7.2273E+2	8.8053E-3
7.2295E+2	1.0124E-2
7.2317E+2	1.1064E-2
7.2339E+2	1.1174E-2
7.2361E+2	1.0247E-2
7.2383E+2	6.9774E-3
7.2405E+2	1.1041E-2
7.2427E+2	1.1179E-2
7.2449E+2	1.0203E-2
7.2471E+2	9.3497E-3
7.2493E+2	1.1306E-2
7.2514E+2	9.1604E-3
7.2536E+2	9.6440E-3
7.2558E+2	1.1680E-2
7.2580E+2	1.1194E-2
7.2602E+2	6.9699E-3
7.2624E+2	1.3285E-2
7.2646E+2	9.1231E-3
7.2668E+2	1.3524E-2
7.2690E+2	9.1805E-3
7.2711E+2	7.8903E-3
7.2733E+2	1.1045E-2
7.2755E+2	1.0627E-2
7.2777E+2	1.3242E-2
7.2799E+2	9.6484E-3
7.2821E+2	1.0651E-2
7.2843E+2	1.2209E-2
7.2865E+2	1.1487E-2
7.2886E+2	1.4681E-2
7.2908E+2	1.3560E-2
7.2930E+2	1.1971E-2
7.2952E+2	7.7212E-3
7.2974E+2	1.1244E-2
7.2996E+2	1.3176E-2
7.3018E+2	1.3894E-2
7.3039E+2	1.5056E-2
7.3061E+2	1.0514E-2
7.3083E+2	1.1825E-2
7.3105E+2	1.0946E-2
7.3127E+2	1.3564E-2
7.3149E+2	1.2369E-2
7.3171E+2	1.1682E-2
7.3192E+2	1.3476E-2
7.3214E+2	1.2532E-2
7.3236E+2	1.3597E-2
7.3258E+2	1.2506E-2
7.3280E+2	1.4526E-2
7.3302E+2	1.3113E-2
7.3323E+2	1.2541E-2
7.3345E+2	1.2872E-2
7.3367E+2	1.1584E-2
7.3389E+2	1.7002E-2
7.3411E+2	1.0872E-2
7.3433E+2	1.6446E-2
7.3454E+2	1.3266E-2
7.3476E+2	1.0913E-2
7.3498E+2	1.4304E-2
7.3520E+2	1.8048E-2
7.3542E+2	1.4499E-2
7.3564E+2	1.4001E-2
7.3585E+2	1.4082E-2
7.3607E+2	1.5836E-2
7.3629E+2	1.4861E-2
7.3651E+2	1.8124E-2
7.3673E+2	1.5977E-2
7.3694E+2	1.3943E-2
7.3716E+2	1.5712E-2
7.3738E+2	1.6723E-2
7.3760E+2	1.5518E-2
7.3782E+2	1.5671E-2
7.3803E+2	1.6260E-2
7.3825E+2	1.8201E-2
7.3847E+2	1.7386E-2
7.3869E+2	1.4037E-2
7.3891E+2	1.7386E-2
7.3912E+2	2.0686E-2
7.3934E+2	1.7467E-2
7.3956E+2	1.3687E-2
7.3978E+2	1.6892E-2
7.4000E+2	2.0662E-2
7.4021E+2	1.6912E-2
7.4043E+2	1.7106E-2
7.4065E+2	1.5031E-2
7.4087E+2	1.6008E-2
7.4108E+2	1.9579E-2
7.4130E+2	1.6076E-2
7.4152E+2	1.4033E-2
7.4174E+2	1.9039E-2
7.4196E+2	1.6150E-2
7.4217E+2	1.9104E-2
7.4239E+2	1.5813E-2
7.4261E+2	1.7942E-2
7.4283E+2	1.9440E-2
7.4304E+2	1.8675E-2
7.4326E+2	2.0387E-2
7.4348E+2	1.8823E-2
7.4370E+2	2.0087E-2
7.4391E+2	1.8299E-2
7.4413E+2	2.1750E-2
7.4435E+2	1.9422E-2
7.4457E+2	1.8486E-2
7.4478E+2	2.2348E-2
7.4500E+2	2.0041E-2
7.4522E+2	2.4795E-2
7.4544E+2	2.0108E-2
7.4565E+2	2.2379E-2
7.4587E+2	2.2165E-2
7.4609E+2	2.0012E-2
7.4631E+2	2.2487E-2
7.4652E+2	1.9810E-2
7.4674E+2	2.3132E-2
7.4696E+2	2.2027E-2
7.4717E+2	2.1993E-2
7.4739E+2	2.2900E-2
7.4761E+2	2.0676E-2
7.4783E+2	2.3661E-2
7.4804E+2	2.2281E-2
7.4826E+2	2.4929E-2
7.4848E+2	2.4804E-2
7.4869E+2	2.1702E-2
7.4891E+2	2.1061E-2
7.4913E+2	2.4333E-2
7.4935E+2	2.3785E-2
7.4956E+2	2.3013E-2
7.4978E+2	2.5958E-2
7.5000E+2	2.3771E-2
7.5021E+2	2.3800E-2
7.5043E+2	2.4228E-2
7.5065E+2	2.5676E-2
7.5087E+2	2.3128E-2
7.5108E+2	2.5709E-2
7.5130E+2	2.7290E-2
7.5152E+2	2.6264E-2
7.5173E+2	2.7628E-2
7.5195E+2	2.6545E-2
7.5217E+2	2.6698E-2
7.5238E+2	2.6241E-2
7.5260E+2	2.6065E-2
7.5282E+2	2.4019E-2
7.5303E+2	2.5902E-2
7.5325E+2	2.7830E-2
7.5347E+2	2.7790E-2
7.5368E+2	2.9021E-2
7.5390E+2	3.0047E-2
7.5412E+2	2.8401E-2
7.5433E+2	2.7292E-2
7.5455E+2	2.9166E-2
7.5477E+2	2.8890E-2
7.5498E+2	2.9411E-2
7.5520E+2	2.8063E-2
7.5542E+2	3.0912E-2
7.5563E+2	2.5564E-2
7.5585E+2	2.9726E-2
7.5607E+2	2.8627E-2
7.5628E+2	3.0815E-2
7.5650E+2	2.9353E-2
7.5672E+2	2.8591E-2
7.5693E+2	2.9621E-2
7.5715E+2	2.9407E-2
7.5737E+2	2.9987E-2
7.5758E+2	3.2369E-2
7.5780E+2	3.2092E-2
7.5802E+2	3.2023E-2
7.5823E+2	3.1708E-2
7.5845E+2	2.8806E-2
7.5866E+2	3.1581E-2
7.5888E+2	2.9954E-2
7.5910E+2	3.1803E-2
7.5931E+2	3.4577E-2
7.5953E+2	3.1960E-2
7.5975E+2	3.4441E-2
7.5996E+2	3.4419E-2
7.6018E+2	3.3548E-2
7.6040E+2	3.1850E-2
7.6061E+2	3.1960E-2
7.6083E+2	3.4946E-2
7.6104E+2	2.9243E-2
7.6126E+2	3.2939E-2
7.6148E+2	3.5528E-2
7.6169E+2	3.2809E-2
7.6191E+2	3.5596E-2
7.6212E+2	3.3798E-2
7.6234E+2	3.7029E-2
7.6256E+2	3.2123E-2
7.6277E+2	3.5293E-2
7.6299E+2	3.3385E-2
7.6320E+2	3.7812E-2
7.6342E+2	3.1632E-2
7.6364E+2	3.4649E-2
7.6385E+2	3.8098E-2
7.6407E+2	3.6000E-2
7.6428E+2	3.3982E-2
7.6450E+2	3.5343E-2
7.6472E+2	3.5954E-2
7.6493E+2	3.7237E-2
7.6515E+2	3.3095E-2
7.6536E+2	3.6691E-2
7.6558E+2	3.5280E-2
7.6579E+2	3.7700E-2
7.6601E+2	3.6303E-2
7.6623E+2	3.5998E-2
7.6644E+2	3.4941E-2
7.6666E+2	3.6343E-2
7.6687E+2	3.6104E-2
7.6709E+2	3.6309E-2
7.6730E+2	3.8381E-2
7.6752E+2	3.3748E-2
7.6774E+2	3.7724E-2
7.6795E+2	3.6591E-2
7.6817E+2	3.7120E-2
7.6838E+2	3.6756E-2
7.6860E+2	3.7051E-2
7.6881E+2	3.6108E-2
7.6903E+2	4.0489E-2
7.6925E+2	3.8646E-2
7.6946E+2	4.2022E-2
7.6968E+2	4.5000E-2
7.6989E+2	4.6205E-2
7.7011E+2	4.3924E-2
7.7032E+2	4.0147E-2
7.7054E+2	4.6522E-2
7.7075E+2	4.2609E-2
7.7097E+2	4.2182E-2
7.7118E+2	3.8533E-2
7.7140E+2	3.7626E-2
7.7161E+2	3.6422E-2
7.7183E+2	3.7482E-2
7.7205E+2	3.6910E-2
7.7226E+2	3.6057E-2
7.7248E+2	3.8905E-2
7.7269E+2	3.8749E-2
7.7291E+2	4.0891E-2
7.7312E+2	3.6474E-2
7.7334E+2	3.6182E-2
7.7355E+2	3.5921E-2
7.7377E+2	3.8502E-2
7.7398E+2	3.6016E-2
7.7420E+2	3.8446E-2
7.7441E+2	3.4106E-2
7.7463E+2	3.8751E-2
7.7484E+2	4.0572E-2
7.7506E+2	3.8740E-2
7.7527E+2	3.6630E-2
7.7549E+2	3.6086E-2
7.7570E+2	4.0508E-2
7.7592E+2	3.5236E-2
7.7613E+2	3.9414E-2
7.7635E+2	3.7946E-2
7.7656E+2	4.0860E-2
7.7678E+2	4.1357E-2
7.7699E+2	3.6177E-2
7.7721E+2	3.3839E-2
7.7742E+2	3.8021E-2
7.7764E+2	3.8197E-2
7.7785E+2	3.3398E-2
7.7807E+2	3.7767E-2
7.7828E+2	3.6923E-2
7.7850E+2	3.7795E-2
7.7871E+2	3.7175E-2
7.7893E+2	3.4525E-2
7.7914E+2	3.5062E-2
7.7936E+2	3.6652E-2
7.7957E+2	3.5399E-2
7.7978E+2	3.5939E-2
7.8000E+2	3.3408E-2
7.8021E+2	3.2523E-2
7.8043E+2	3.5609E-2
7.8064E+2	3.3740E-2
7.8086E+2	3.4711E-2
7.8107E+2	3.2088E-2
7.8129E+2	3.3536E-2
7.8150E+2	3.3200E-2
7.8172E+2	3.4631E-2
7.8193E+2	3.3150E-2
7.8214E+2	3.2185E-2
7.8236E+2	3.2975E-2
7.8257E+2	3.2790E-2
7.8279E+2	3.2052E-2
7.8300E+2	3.3089E-2
7.8322E+2	2.9483E-2
7.8343E+2	2.9296E-2
7.8365E+2	3.0694E-2
7.8386E+2	3.0001E-2
7.8407E+2	2.9058E-2
7.8429E+2	3.0353E-2
7.8450E+2	2.7850E-2
7.8472E+2	2.9484E-2
7.8493E+2	3.1292E-2
7.8515E+2	3.0203E-2
7.8536E+2	3.0638E-2
7.8557E+2	2.8102E-2
7.8579E+2	3.2393E-2
7.8600E+2	2.8813E-2
7.8622E+2	2.7323E-2
7.8643E+2	2.8230E-2
7.8665E+2	2.7878E-2
7.8686E+2	2.9185E-2
7.8707E+2	2.8989E-2
7.8729E+2	2.5022E-2
7.8750E+2	2.8286E-2
7.8772E+2	2.7292E-2
7.8793E+2	2.8090E-2
7.8814E+2	2.6543E-2
7.8836E+2	2.8348E-2
7.8857E+2	2.4629E-2
7.8879E+2	2.5154E-2
7.8900E+2	2.4879E-2
7.8921E+2	2.4598E-2
7.8943E+2	2.2147E-2
7.8964E+2	2.5065E-2
7.8985E+2	2.5087E-2
7.9007E+2	2.2889E-2
7.9028E+2	2.4355E-2
7.9050E+2	2.2661E-2
7.9071E+2	2.3893E-2
7.9092E+2	2.3057E-2
7.9114E+2	2.2222E-2
7.9135E+2	2.3591E-2
7.9157E+2	2.1857E-2
7.9178E+2	2.3220E-2
7.9199E+2	2.4689E-2
7.9221E+2	2.1097E-2
7.9242E+2	2.0866E-2
7.9263E+2	2.3237E-2
7.9285E+2	1.9469E-2
7.9306E+2	2.0440E-2
7.9327E+2	2.1983E-2
7.9349E+2	2.1775E-2
7.9370E+2	1.8360E-2
7.9392E+2	1.9963E-2
7.9413E+2	2.0842E-2
7.9434E+2	1.9016E-2
7.9456E+2	2.0304E-2
7.9477E+2	1.8112E-2
7.9498E+2	1.7581E-2
7.9520E+2	2.0049E-2
7.9541E+2	1.9538E-2
7.9562E+2	1.7891E-2
7.9584E+2	1.8199E-2
7.9605E+2	1.6194E-2
7.9626E+2	1.6747E-2
7.9648E+2	1.8254E-2
7.9669E+2	1.7452E-2
7.9690E+2	1.6294E-2
7.9712E+2	1.6109E-2
7.9733E+2	1.6795E-2
7.9754E+2	1.4776E-2
7.9776E+2	1.5171E-2
7.9797E+2	1.6848E-2
7.9818E+2	1.7237E-2
7.9840E+2	1.5495E-2
7.9861E+2	1.4439E-2
7.9882E+2	1.5332E-2
7.9904E+2	1.4611E-2
7.9925E+2	1.6086E-2
7.9946E+2	1.5729E-2
7.9967E+2	1.4016E-2
7.9989E+2	1.4957E-2
8.0010E+2	1.6173E-2
8.0031E+2	1.2844E-2
8.0053E+2	1.3601E-2
8.0074E+2	1.5300E-2
8.0095E+2	1.2803E-2
8.0117E+2	1.0977E-2
8.0138E+2	1.3580E-2
8.0159E+2	1.3333E-2
8.0180E+2	1.2428E-2
8.0202E+2	1.0955E-2
8.0223E+2	1.1661E-2
8.0244E+2	1.2379E-2
8.0266E+2	1.1615E-2
8.0287E+2	1.1091E-2
8.0308E+2	9.0441E-3
8.0329E+2	1.2637E-2
8.0351E+2	1.1763E-2
8.0372E+2	1.0484E-2
8.0393E+2	1.1654E-2
8.0415E+2	1.2568E-2
8.0436E+2	9.5255E-3
8.0457E+2	1.2181E-2
8.0478E+2	1.0932E-2
8.0500E+2	8.7839E-3
8.0521E+2	1.1049E-2
8.0542E+2	9.5478E-3
8.0563E+2	8.9284E-3
8.0585E+2	1.0316E-2
8.0606E+2	8.5337E-3
8.0627E+2	8.5920E-3
8.0648E+2	1.0708E-2
8.0670E+2	8.9589E-3
8.0691E+2	8.6261E-3
8.0712E+2	8.2074E-3
8.0733E+2	9.8058E-3
8.0755E+2	9.0972E-3
8.0776E+2	9.8309E-3
8.0797E+2	9.3959E-3
8.0818E+2	9.9202E-3
8.0840E+2	8.5119E-3
8.0861E+2	7.6463E-3
8.0882E+2	7.9673E-3
8.0903E+2	7.2749E-3
8.0925E+2	6.8227E-3
8.0946E+2	6.4201E-3
8.0967E+2	6.5831E-3
8.0988E+2	7.4680E-3
8.1009E+2	7.5126E-3
8.1031E+2	8.0712E-3
8.1052E+2	5.9566E-3
8.1073E+2	8.6118E-3
8.1094E+2	1.0250E-2
8.1116E+2	7.4786E-3
8.1137E+2	7.4269E-3
8.1158E+2	6.1789E-3
8.1179E+2	7.3153E-3
8.1200E+2	5.3798E-3
8.1222E+2	7.2400E-3
8.1243E+2	7.7775E-3
8.1264E+2	8.2050E-3
8.1285E+2	8.2368E-3
8.1306E+2	7.5775E-3
8.1328E+2	8.1751E-3
8.1349E+2	6.7016E-3
8.1370E+2	6.3581E-3
8.1391E+2	5.3481E-3
8.1412E+2	5.8057E-3
8.1434E+2	5.4452E-3
8.1455E+2	5.1819E-3
8.1476E+2	8.2587E-3
8.1497E+2	6.6046E-3
8.1518E+2	5.9909E-3
8.1540E+2	4.7370E-3
8.1561E+2	5.4168E-3
8.1582E+2	5.8545E-3
8.1603E+2	5.3930E-3
8.1624E+2	6.5719E-3
8.1645E+2	5.1945E-3
8.1667E+2	5.9276E-3
8.1688E+2	4.1667E-3
8.1709E+2	5.5005E-3
8.1730E+2	5.4135E-3
8.1751E+2	4.8877E-3
8.1772E+2	4.8912E-3
8.1794E+2	6.4141E-3
8.1815E+2	5.2824E-3
8.1836E+2	5.3037E-3
8.1857E+2	3.2627E-3
8.1878E+2	3.7529E-3
8.1899E+2	6.9268E-3
8.1921E+2	4.8212E-3
8.1942E+2	4.0466E-3
8.1963E+2	5.4207E-3
8.1984E+2	4.4014E-3
8.2005E+2	4.9671E-3
8.2026E+2	5.5272E-3
8.2047E+2	5.2203E-3
8.2069E+2	4.6267E-3
8.2090E+2	5.0541E-3
8.2111E+2	4.5806E-3
8.2132E+2	6.9093E-3
8.2153E+2	2.9436E-3
8.2174E+2	2.8052E-3
8.2195E+2	3.6552E-3
8.2216E+2	3.8980E-3
8.2238E+2	1.4753E-3
8.2259E+2	4.9709E-3
8.2280E+2	3.8335E-3
8.2301E+2	6.7011E-3
8.2322E+2	1.2707E-2
8.2343E+2	8.6299E-3
8.2364E+2	9.6287E-3
8.2385E+2	1.0799E-2
8.2407E+2	8.8509E-3
8.2428E+2	1.1680E-2
8.2449E+2	5.0171E-3
8.2470E+2	3.1913E-3
8.2491E+2	2.4975E-3
8.2512E+2	4.5610E-3
8.2533E+2	3.6129E-3
8.2554E+2	4.2261E-3
8.2575E+2	2.9127E-3
8.2596E+2	2.8115E-3
8.2618E+2	2.8931E-3
8.2639E+2	1.6466E-3
8.2660E+2	3.5692E-3
8.2681E+2	2.3293E-3
8.2702E+2	1.2438E-3
8.2723E+2	2.5631E-3
8.2744E+2	3.5457E-3
8.2765E+2	4.4392E-3
8.2786E+2	4.1143E-3
8.2807E+2	2.7184E-3
8.2828E+2	2.7055E-3
8.2849E+2	3.6746E-3
8.2871E+2	3.4263E-3
8.2892E+2	2.6495E-3
8.2913E+2	1.7794E-3
8.2934E+2	1.2328E-3
8.2955E+2	1.8250E-3
8.2976E+2	4.3290E-3
8.2997E+2	3.6008E-3
8.3018E+2	2.6557E-3
8.3039E+2	3.3814E-3
8.3060E+2	3.5442E-3
8.3081E+2	3.5371E-3
8.3102E+2	3.6822E-3
8.3123E+2	3.2654E-3
8.3144E+2	4.2178E-3
8.3165E+2	3.8596E-3
8.3186E+2	1.6253E-3
8.3208E+2	1.8469E-3
8.3229E+2	4.7910E-3
8.3250E+2	1.7405E-3
8.3271E+2	2.1428E-3
8.3292E+2	2.2763E-4
8.3313E+2	2.7599E-3
8.3334E+2	4.0655E-3
8.3355E+2	1.7260E-3
8.3376E+2	2.4657E-3
8.3397E+2	2.9140E-5
8.3418E+2	2.1382E-3
8.3439E+2	2.9064E-3
8.3460E+2	3.4994E-3
8.3481E+2	2.7358E-3
8.3502E+2	2.9561E-3
8.3523E+2	3.7870E-3
8.3544E+2	3.1694E-3
8.3565E+2	2.8894E-3
8.3586E+2	8.6026E-4
8.3607E+2	1.9293E-3
8.3628E+2	3.8226E-3
8.3649E+2	2.7064E-3
8.3670E+2	2.3979E-3
8.3691E+2	1.9271E-3
8.3712E+2	2.3908E-3
8.3733E+2	4.4263E-3
8.3754E+2	4.8079E-3
8.3775E+2	2.4294E-3
8.3796E+2	3.0086E-3
8.3817E+2	1.9358E-3
8.3838E+2	1.8773E-3
8.3859E+2	1.3033E-3
8.3880E+2	1.6563E-3
8.3901E+2	1.9337E-3
8.3922E+2	3.2588E-3
8.3943E+2	3.0901E-3
8.3964E+2	2.0654E-3
8.3985E+2	2.7474E-3
8.4006E+2	2.9493E-3
8.4027E+2	1.9369E-3
8.4048E+2	3.2139E-3
8.4069E+2	2.1614E-3
8.4090E+2	1.8200E-3
8.4111E+2	7.8560E-4
8.4132E+2	4.2621E-3
8.4153E+2	2.4193E-3
8.4174E+2	1.2180E-3
8.4195E+2	2.6144E-3
8.4216E+2	1.5118E-3
8.4237E+2	2.6655E-3
8.4258E+2	2.3016E-3
8.4279E+2	1.0958E-4
8.4300E+2	1.2109E-3
8.4321E+2	3.4474E-3
8.4342E+2	3.1009E-3
8.4362E+2	2.1264E-3
8.4383E+2	-9.1609E-4
8.4404E+2	2.0738E-3
8.4425E+2	6.5658E-4
8.4446E+2	2.1423E-3
8.4467E+2	2.0613E-3
8.4488E+2	3.0454E-3
8.4509E+2	1.2145E-3
8.4530E+2	2.5379E-3
8.4551E+2	3.1647E-3
8.4572E+2	3.2620E-3
8.4593E+2	3.2672E-3
8.4614E+2	2.7893E-3
8.4635E+2	5.7503E-4
8.4656E+2	1.6616E-3
8.4677E+2	2.3915E-3
8.4697E+2	8.1049E-4
8.4718E+2	2.0403E-3
8.4739E+2	1.9653E-3
8.4760E+2	3.2808E-3
8.4781E+2	2.7289E-3
8.4802E+2	1.6888E-3
8.4823E+2	1.3268E-3
8.4844E+2	1.4989E-3
8.4865E+2	2.5954E-3
8.4886E+2	2.3253E-3
8.4907E+2	1.5903E-3
8.4928E+2	2.4512E-3
8.4948E+2	2.0319E-3
8.4969E+2	3.2541E-3
8.4990E+2	3.4719E-3
8.5011E+2	8.8940E-4
8.5032E+2	2.4557E-3
8.5053E+2	2.8283E-3
8.5074E+2	3.2927E-3
8.5095E+2	2.3288E-3
8.5116E+2	2.9939E-3
8.5137E+2	1.6517E-3
8.5157E+2	3.6301E-3
8.5178E+2	1.5999E-3
8.5199E+2	3.3830E-3
8.5220E+2	-8.6002E-5
8.5241E+2	4.0074E-3
8.5262E+2	1.2899E-3
8.5283E+2	6.7069E-4
8.5304E+2	3.4965E-4
8.5324E+2	2.6137E-3
8.5345E+2	2.8199E-3
8.5366E+2	1.6735E-3
8.5387E+2	3.0603E-3
8.5408E+2	2.2293E-3
8.5429E+2	1.8968E-3
8.5450E+2	2.4526E-3
8.5471E+2	3.2432E-3
8.5491E+2	2.5785E-3
8.5512E+2	1.3064E-3
8.5533E+2	2.7387E-3
8.5554E+2	3.6096E-3
8.5575E+2	2.5668E-3
8.5596E+2	2.4235E-3
8.5617E+2	2.2115E-3
8.5637E+2	2.0682E-3
8.5658E+2	-1.1458E-4
8.5679E+2	1.2948E-3
8.5700E+2	2.9505E-3
8.5721E+2	3.6437E-3
8.5742E+2	2.8073E-3
8.5762E+2	1.8963E-3
8.5783E+2	2.4063E-3
8.5804E+2	2.5323E-3
8.5825E+2	2.2230E-3
8.5846E+2	1.1173E-3
8.5867E+2	3.0080E-3
8.5887E+2	1.8220E-3
8.5908E+2	3.4265E-3
8.5929E+2	2.7791E-3
8.5950E+2	2.4468E-3
8.5971E+2	2.8652E-3
8.5992E+2	1.5301E-3
8.6012E+2	3.4959E-3
