PE UV       SUBTECH     SPECTRUM    ASCII       PEDS        4.00        
   -1
1_TR.Sample.asc
23/04/19
10:21:18.00
23/04/19
10:21:18.00
Analyst

300.000000
1
Lambda 950
950L1311181
PerkinElmer UV WinLab 6.0.4.0738 / 1.61.00 Lambda 900

0
0
3350/servo 860.8/5
0
0
UV/VIS
1
1
1
RBeamAtt,SBeamAtt,150mm sphere / downward view, WB InGaAs Detector
0
0
0
0
Program
Program
3350/servo 860.8/5
3350/0.2 860.8/0.2
3350/0.2 860.8/0.2
0
9.50
 
 
 
0
 
860.8
319.2
860.8
Front
100
 
S:100 R:100
 
0
0
0
 
0
 
 
 
0
 
 
0
0
0
0
0
 
 
 
 
0
0


0
0
#HDR
-1
-1
#GR
nm
%R
1.0
0.0
1200.000000
-10.000000
91
8
40.748370
8.243515
#DATA
1200.000000	40.621738
1190.000000	40.748370
1180.000000	40.711718
1170.000000	40.489284
1160.000000	40.034205
1150.000000	39.373947
1140.000000	38.503003
1130.000000	37.450976
1120.000000	36.201340
1110.000000	34.799154
1100.000000	33.202056
1090.000000	31.495257
1080.000000	29.644525
1070.000000	27.756206
1060.000000	25.863944
1050.000000	24.021915
1040.000000	22.323746
1030.000000	20.864716
1020.000000	19.713991
1010.000000	18.949236
1000.000000	18.580443
990.000000	18.633256
980.000000	19.068971
970.000000	19.801899
960.000000	20.799139
950.000000	21.910875
940.000000	23.056176
930.000000	24.091307
920.000000	25.000195
910.000000	25.656159
900.000000	26.031542
890.000000	26.091077
880.000000	25.817572
870.000000	25.182490
860.000000	24.214647
850.000000	23.633808
840.000000	22.544623
830.000000	21.329889
820.000000	19.910330
810.000000	18.616602
800.000000	17.783760
790.000000	17.736469
780.000000	17.829715
770.000000	17.545747
760.000000	16.740353
750.000000	15.966504
740.000000	15.513256
730.000000	15.304457
720.000000	15.155870
710.000000	15.023819
700.000000	14.902691
690.000000	14.719679
680.000000	14.541735
670.000000	14.375449
660.000000	14.242260
650.000000	14.164094
640.000000	14.153242
630.000000	14.183226
620.000000	14.252430
610.000000	14.253810
600.000000	14.205996
590.000000	14.154396
580.000000	14.077320
570.000000	13.984986
560.000000	13.883571
550.000000	13.806126
540.000000	13.682645
530.000000	13.521079
520.000000	13.290613
510.000000	13.132834
500.000000	13.018842
490.000000	12.683498
480.000000	12.239552
470.000000	11.816549
460.000000	11.512900
450.000000	11.410271
440.000000	11.503582
430.000000	11.506686
420.000000	11.438688
410.000000	11.219938
400.000000	10.789296
390.000000	10.314839
380.000000	9.845789
370.000000	9.301033
360.000000	9.074675
350.000000	8.754059
340.000000	8.674667
330.000000	8.576614
320.000000	8.243515
310.000000	8.554615
300.000000	11.113934
