PE UV       SUBTECH     SPECTRUM    ASCII       PEDS        4.00        
   -1
2_TR.Sample.asc
23/04/19
10:25:19.00
23/04/19
10:25:19.00
Analyst

300.000000
1
Lambda 950
950L1311181
PerkinElmer UV WinLab 6.0.4.0738 / 1.61.00 Lambda 900

0
0
3350/servo 860.8/5
0
0
UV/VIS
1
1
1
RBeamAtt,SBeamAtt,150mm sphere / downward view, WB InGaAs Detector
0
0
0
0
Program
Program
3350/servo 860.8/5
3350/0.2 860.8/0.2
3350/0.2 860.8/0.2
0
9.50
 
 
 
0
 
860.8
319.2
860.8
Front
100
 
S:100 R:100
 
0
0
0
 
0
 
 
 
0
 
 
0
0
0
0
0
 
 
 
 
0
0


0
0
#HDR
-1
-1
#GR
nm
%R
1.0
0.0
1200.000000
-10.000000
91
8
50.411770
6.098989
#DATA
1200.000000	50.411770
1190.000000	49.053528
1180.000000	47.210205
1170.000000	44.988973
1160.000000	42.287379
1150.000000	39.169617
1140.000000	35.614977
1130.000000	31.733445
1120.000000	27.611768
1110.000000	23.449704
1100.000000	19.443961
1090.000000	15.846007
1080.000000	12.874529
1070.000000	10.845822
1060.000000	9.905769
1050.000000	10.114211
1040.000000	11.434356
1030.000000	13.696897
1020.000000	16.640663
1010.000000	20.009722
1000.000000	23.533160
990.000000	26.928366
980.000000	29.962664
970.000000	32.460591
960.000000	34.357284
950.000000	35.466933
940.000000	35.761072
930.000000	35.161139
920.000000	33.656248
910.000000	31.336021
900.000000	28.251741
890.000000	24.650151
880.000000	20.767790
870.000000	17.212974
860.000000	14.470899
850.000000	12.787468
840.000000	12.398012
830.000000	13.201239
820.000000	15.205575
810.000000	18.240964
800.000000	21.971712
790.000000	24.901999
780.000000	25.117284
770.000000	21.875844
760.000000	18.047490
750.000000	16.041580
740.000000	15.279253
730.000000	14.807977
720.000000	14.376508
710.000000	14.031533
700.000000	13.799873
690.000000	13.728248
680.000000	13.836196
670.000000	14.091365
660.000000	14.348075
650.000000	14.536947
640.000000	14.583681
630.000000	14.449264
620.000000	14.233427
610.000000	14.041246
600.000000	13.938665
590.000000	13.950615
580.000000	13.950085
570.000000	13.906511
560.000000	13.800663
550.000000	13.667345
540.000000	13.514155
530.000000	13.326903
520.000000	13.087897
510.000000	12.872409
500.000000	12.774703
490.000000	12.430385
480.000000	11.916489
470.000000	11.471465
460.000000	11.206738
450.000000	11.057532
440.000000	11.121880
430.000000	11.125424
420.000000	11.039518
410.000000	10.844813
400.000000	10.431358
390.000000	9.962089
380.000000	9.525493
370.000000	9.033274
360.000000	8.825559
350.000000	8.508830
340.000000	8.472577
330.000000	8.386079
320.000000	8.127939
310.000000	8.186341
300.000000	6.098989
