PE UV       SUBTECH     SPECTRUM    ASCII       PEDS        4.00        
   -1
3_TR.Sample.asc
23/04/19
10:28:05.00
23/04/19
10:28:05.00
Analyst

300.000000
1
Lambda 950
950L1311181
PerkinElmer UV WinLab 6.0.4.0738 / 1.61.00 Lambda 900

0
0
3350/servo 860.8/5
0
0
UV/VIS
1
1
1
RBeamAtt,SBeamAtt,150mm sphere / downward view, WB InGaAs Detector
0
0
0
0
Program
Program
3350/servo 860.8/5
3350/0.2 860.8/0.2
3350/0.2 860.8/0.2
0
9.50
 
 
 
0
 
860.8
319.2
860.8
Front
100
 
S:100 R:100
 
0
0
0
 
0
 
 
 
0
 
 
0
0
0
0
0
 
 
 
 
0
0


0
0
#HDR
-1
-1
#GR
nm
%R
1.0
0.0
1200.000000
-10.000000
91
8
49.780637
7.122567
#DATA
1200.000000	49.731870
1190.000000	49.780637
1180.000000	49.460987
1170.000000	48.767543
1160.000000	47.679811
1150.000000	46.158437
1140.000000	44.192819
1130.000000	41.801166
1120.000000	38.943658
1110.000000	35.647200
1100.000000	31.964531
1090.000000	28.015253
1080.000000	23.875957
1070.000000	19.828851
1060.000000	16.115383
1050.000000	13.018454
1040.000000	10.739413
1030.000000	9.503363
1020.000000	9.386023
1010.000000	10.352355
1000.000000	12.268883
990.000000	14.907336
980.000000	18.001043
970.000000	21.245407
960.000000	24.495585
950.000000	27.417037
940.000000	29.859926
930.000000	31.664612
920.000000	32.780787
910.000000	33.076292
900.000000	32.536003
890.000000	31.102206
880.000000	28.824915
870.000000	25.829760
860.000000	22.380419
850.000000	20.747734
840.000000	17.801075
830.000000	15.162607
820.000000	13.365763
810.000000	12.995663
800.000000	14.458854
790.000000	17.378811
780.000000	20.236076
770.000000	20.870410
760.000000	19.037135
750.000000	17.174775
740.000000	16.211638
730.000000	15.722487
720.000000	15.312934
710.000000	14.923626
700.000000	14.469343
690.000000	14.057006
680.000000	13.698814
670.000000	13.566176
660.000000	13.567156
650.000000	13.750429
640.000000	13.999589
630.000000	14.139424
620.000000	14.171362
610.000000	14.037846
600.000000	13.821975
590.000000	13.680683
580.000000	13.575895
570.000000	13.526807
560.000000	13.451909
550.000000	13.306080
540.000000	13.105489
530.000000	12.881615
520.000000	12.647953
510.000000	12.523083
500.000000	12.591555
490.000000	12.348772
480.000000	11.807904
470.000000	11.438463
460.000000	11.246862
450.000000	11.217551
440.000000	11.285603
430.000000	11.236054
420.000000	11.012345
410.000000	10.544539
400.000000	9.837235
390.000000	9.094005
380.000000	8.388046
370.000000	7.608404
360.000000	7.299648
350.000000	7.122567
340.000000	7.337629
330.000000	7.501110
320.000000	7.287310
310.000000	7.602455
300.000000	9.623168
