PE UV       SUBTECH     SPECTRUM    ASCII       PEDS        4.00        
   -1
4_TR.Sample.asc
23/04/19
10:30:50.00
23/04/19
10:30:50.00
Analyst

300.000000
1
Lambda 950
950L1311181
PerkinElmer UV WinLab 6.0.4.0738 / 1.61.00 Lambda 900

0
0
3350/servo 860.8/5
0
0
UV/VIS
1
1
1
RBeamAtt,SBeamAtt,150mm sphere / downward view, WB InGaAs Detector
0
0
0
0
Program
Program
3350/servo 860.8/5
3350/0.2 860.8/0.2
3350/0.2 860.8/0.2
0
9.50
 
 
 
0
 
860.8
319.2
860.8
Front
100
 
S:100 R:100
 
0
0
0
 
0
 
 
 
0
 
 
0
0
0
0
0
 
 
 
 
0
0


0
0
#HDR
-1
-1
#GR
nm
%R
1.0
0.0
1200.000000
-10.000000
91
8
50.989293
9.670548
#DATA
1200.000000	50.989293
1190.000000	50.398627
1180.000000	49.410140
1170.000000	48.023801
1160.000000	46.186299
1150.000000	43.903842
1140.000000	41.178682
1130.000000	37.980772
1120.000000	34.371813
1110.000000	30.434840
1100.000000	26.299290
1090.000000	22.167984
1080.000000	18.194835
1070.000000	14.718989
1060.000000	12.028353
1050.000000	10.298906
1040.000000	9.670548
1030.000000	10.181454
1020.000000	11.722878
1010.000000	14.116178
1000.000000	17.136230
990.000000	20.487758
980.000000	23.866954
970.000000	27.058243
960.000000	29.899359
950.000000	32.183354
940.000000	33.774751
930.000000	34.565946
920.000000	34.507750
910.000000	33.537426
900.000000	31.698538
890.000000	29.100692
880.000000	25.743557
870.000000	22.048793
860.000000	18.508375
850.000000	16.910591
840.000000	14.695217
830.000000	13.401400
820.000000	13.400251
810.000000	14.849973
800.000000	17.792805
790.000000	21.281209
780.000000	23.345521
770.000000	22.220147
760.000000	19.192581
750.000000	17.105073
740.000000	16.200246
730.000000	15.670498
720.000000	15.234402
710.000000	14.810802
700.000000	14.443212
690.000000	14.151035
680.000000	14.038000
670.000000	14.126476
660.000000	14.331262
650.000000	14.563778
640.000000	14.785160
630.000000	14.851237
620.000000	14.741543
610.000000	14.589657
600.000000	14.432656
590.000000	14.398985
580.000000	14.407031
570.000000	14.394053
560.000000	14.329210
550.000000	14.249089
540.000000	14.129509
530.000000	13.958083
520.000000	13.810040
510.000000	13.782416
500.000000	13.975066
490.000000	13.838269
480.000000	13.432339
470.000000	13.199847
460.000000	13.163905
450.000000	13.257628
440.000000	13.506107
430.000000	13.612308
420.000000	13.537936
410.000000	13.248222
400.000000	12.724793
390.000000	12.197220
380.000000	11.687181
370.000000	11.059488
360.000000	10.742911
350.000000	10.462470
340.000000	10.588579
330.000000	10.635313
320.000000	10.328232
310.000000	10.411384
300.000000	11.815018
