PE UV       SUBTECH     SPECTRUM    ASCII       PEDS        4.00        
   -1
5_TR.Sample.asc
23/04/19
10:33:39.00
23/04/19
10:33:39.00
Analyst

300.000000
1
Lambda 950
950L1311181
PerkinElmer UV WinLab 6.0.4.0738 / 1.61.00 Lambda 900

0
0
3350/servo 860.8/5
0
0
UV/VIS
1
1
1
RBeamAtt,SBeamAtt,150mm sphere / downward view, WB InGaAs Detector
0
0
0
0
Program
Program
3350/servo 860.8/5
3350/0.2 860.8/0.2
3350/0.2 860.8/0.2
0
9.50
 
 
 
0
 
860.8
319.2
860.8
Front
100
 
S:100 R:100
 
0
0
0
 
0
 
 
 
0
 
 
0
0
0
0
0
 
 
 
 
0
0


0
0
#HDR
-1
-1
#GR
nm
%R
1.0
0.0
1200.000000
-10.000000
91
8
47.392369
6.484739
#DATA
1200.000000	46.792593
1190.000000	47.232879
1180.000000	47.392369
1170.000000	47.202762
1160.000000	46.667870
1150.000000	45.767095
1140.000000	44.501370
1130.000000	42.879082
1120.000000	40.873677
1110.000000	38.514223
1100.000000	35.804328
1090.000000	32.819832
1080.000000	29.591216
1070.000000	26.263300
1060.000000	23.002128
1050.000000	19.924876
1040.000000	17.212833
1030.000000	15.056504
1020.000000	13.612771
1010.000000	12.972076
1000.000000	13.160765
990.000000	14.149918
980.000000	15.813724
970.000000	17.969387
960.000000	20.453397
950.000000	22.989532
940.000000	25.415761
930.000000	27.467664
920.000000	29.099724
910.000000	30.144796
900.000000	30.508389
890.000000	30.210167
880.000000	29.151376
870.000000	27.454198
860.000000	25.265478
850.000000	24.159852
840.000000	21.847647
830.000000	19.422807
820.000000	17.130928
810.000000	15.515731
800.000000	15.063686
790.000000	16.121808
780.000000	17.755377
770.000000	18.712126
760.000000	17.875254
750.000000	16.634210
740.000000	15.948352
730.000000	15.625125
720.000000	15.417501
710.000000	15.198602
700.000000	14.933534
690.000000	14.621868
680.000000	14.274819
670.000000	14.054438
660.000000	13.893702
650.000000	13.850893
640.000000	13.926458
630.000000	14.055563
620.000000	14.127951
610.000000	14.141076
600.000000	14.061814
590.000000	13.919506
580.000000	13.786410
570.000000	13.698788
560.000000	13.598767
550.000000	13.469387
540.000000	13.300926
530.000000	13.076488
520.000000	12.821560
510.000000	12.629066
500.000000	12.587891
490.000000	12.188683
480.000000	11.558766
470.000000	11.109400
460.000000	10.826347
450.000000	10.632436
440.000000	10.606491
430.000000	10.557087
420.000000	10.384941
410.000000	10.078306
400.000000	9.543791
390.000000	8.946741
380.000000	8.367487
370.000000	7.743443
360.000000	7.463566
350.000000	7.193295
340.000000	7.178206
330.000000	7.153282
320.000000	6.897142
310.000000	7.105006
300.000000	6.484739
