PE UV       SUBTECH     SPECTRUM    ASCII       PEDS        4.00        
   -1
6_TR.Sample.asc
23/04/19
10:36:23.00
23/04/19
10:36:23.00
Analyst

300.000000
1
Lambda 950
950L1311181
PerkinElmer UV WinLab 6.0.4.0738 / 1.61.00 Lambda 900

0
0
3350/servo 860.8/5
0
0
UV/VIS
1
1
1
RBeamAtt,SBeamAtt,150mm sphere / downward view, WB InGaAs Detector
0
0
0
0
Program
Program
3350/servo 860.8/5
3350/0.2 860.8/0.2
3350/0.2 860.8/0.2
0
9.50
 
 
 
0
 
860.8
319.2
860.8
Front
100
 
S:100 R:100
 
0
0
0
 
0
 
 
 
0
 
 
0
0
0
0
0
 
 
 
 
0
0


0
0
#HDR
-1
-1
#GR
nm
%R
1.0
0.0
1200.000000
-10.000000
91
8
42.830523
5.531582
#DATA
1200.000000	42.329185
1190.000000	42.623296
1180.000000	42.830523
1170.000000	42.737008
1160.000000	42.392039
1150.000000	41.794377
1140.000000	40.881228
1130.000000	39.683674
1120.000000	38.193815
1110.000000	36.438177
1100.000000	34.424487
1090.000000	32.224691
1080.000000	29.865335
1070.000000	27.458989
1060.000000	25.136462
1050.000000	22.974940
1040.000000	21.093118
1030.000000	19.626118
1020.000000	18.631862
1010.000000	18.164645
1000.000000	18.191599
990.000000	18.702378
980.000000	19.570374
970.000000	20.702199
960.000000	21.986728
950.000000	23.293198
940.000000	24.518856
930.000000	25.535917
920.000000	26.287628
910.000000	26.726427
900.000000	26.800073
890.000000	26.468474
880.000000	25.726789
870.000000	24.633837
860.000000	23.350836
850.000000	22.835960
840.000000	21.353719
830.000000	19.978289
820.000000	18.529031
810.000000	17.629583
800.000000	17.384504
790.000000	17.985496
780.000000	18.557936
770.000000	18.151846
760.000000	16.730664
750.000000	15.611363
740.000000	15.041114
730.000000	14.752680
720.000000	14.576283
710.000000	14.336550
700.000000	14.138463
690.000000	13.932980
680.000000	13.680272
670.000000	13.546546
660.000000	13.455621
650.000000	13.417518
640.000000	13.433237
630.000000	13.441805
620.000000	13.412893
610.000000	13.335984
600.000000	13.205708
590.000000	13.084982
580.000000	12.975634
570.000000	12.842554
560.000000	12.692986
550.000000	12.518261
540.000000	12.312662
530.000000	12.047800
520.000000	11.729283
510.000000	11.439546
500.000000	11.248269
490.000000	10.862499
480.000000	10.318723
470.000000	9.794283
460.000000	9.414864
450.000000	9.176953
440.000000	9.126646
430.000000	8.986743
420.000000	8.722107
410.000000	8.286225
400.000000	7.664333
390.000000	6.986438
380.000000	6.371329
370.000000	5.775740
360.000000	5.655883
350.000000	5.531582
340.000000	5.713168
330.000000	5.867241
320.000000	5.816980
310.000000	6.226771
300.000000	6.318607
