PE UV       SUBTECH     SPECTRUM    ASCII       PEDS        4.00        
   -1
7_TR.Sample.asc
23/04/19
10:38:57.00
23/04/19
10:38:57.00
Analyst

300.000000
1
Lambda 950
950L1311181
PerkinElmer UV WinLab 6.0.4.0738 / 1.61.00 Lambda 900

0
0
3350/servo 860.8/5
0
0
UV/VIS
1
1
1
RBeamAtt,SBeamAtt,150mm sphere / downward view, WB InGaAs Detector
0
0
0
0
Program
Program
3350/servo 860.8/5
3350/0.2 860.8/0.2
3350/0.2 860.8/0.2
0
9.50
 
 
 
0
 
860.8
319.2
860.8
Front
100
 
S:100 R:100
 
0
0
0
 
0
 
 
 
0
 
 
0
0
0
0
0
 
 
 
 
0
0


0
0
#HDR
-1
-1
#GR
nm
%R
1.0
0.0
1200.000000
-10.000000
91
8
48.278570
5.443494
#DATA
1200.000000	48.278570
1190.000000	48.029649
1180.000000	47.421048
1170.000000	46.427724
1160.000000	45.045016
1150.000000	43.264029
1140.000000	41.119812
1130.000000	38.571459
1120.000000	35.637267
1110.000000	32.445182
1100.000000	28.998032
1090.000000	25.455914
1080.000000	21.918685
1070.000000	18.586459
1060.000000	15.679378
1050.000000	13.377706
1040.000000	11.865911
1030.000000	11.263399
1020.000000	11.596085
1010.000000	12.818842
1000.000000	14.816566
990.000000	17.361902
980.000000	20.229530
970.000000	23.154614
960.000000	25.950079
950.000000	28.366140
940.000000	30.232657
930.000000	31.418612
920.000000	31.901113
910.000000	31.592457
900.000000	30.493913
890.000000	28.658132
880.000000	26.117273
870.000000	23.168547
860.000000	20.071652
850.000000	18.861225
840.000000	16.506128
830.000000	14.732762
820.000000	13.733213
810.000000	14.003819
800.000000	15.656540
790.000000	18.235914
780.000000	20.144018
770.000000	19.833766
760.000000	17.680382
750.000000	15.753033
740.000000	14.781795
730.000000	14.272993
720.000000	13.856139
710.000000	13.420732
700.000000	13.023394
690.000000	12.661353
680.000000	12.406748
670.000000	12.323902
660.000000	12.344603
650.000000	12.474183
640.000000	12.573404
630.000000	12.646915
620.000000	12.564116
610.000000	12.399413
600.000000	12.187877
590.000000	12.012597
580.000000	11.885921
570.000000	11.751594
560.000000	11.603393
550.000000	11.428616
540.000000	11.200472
530.000000	10.949795
520.000000	10.647289
510.000000	10.400807
500.000000	10.300682
490.000000	9.927916
480.000000	9.399310
470.000000	8.969233
460.000000	8.678593
450.000000	8.499739
440.000000	8.452656
430.000000	8.285651
420.000000	8.008757
410.000000	7.566141
400.000000	6.976870
390.000000	6.385301
380.000000	5.886473
370.000000	5.443494
360.000000	5.491155
350.000000	5.538136
340.000000	5.848263
330.000000	6.058527
320.000000	6.011149
310.000000	6.359507
300.000000	6.427310
