PE UV       SUBTECH     SPECTRUM    ASCII       PEDS        4.00        
   -1
8_TR.Sample.asc
23/04/19
10:42:58.00
23/04/19
10:42:58.00
Analyst

300.000000
1
Lambda 950
950L1311181
PerkinElmer UV WinLab 6.0.4.0738 / 1.61.00 Lambda 900

0
0
3350/servo 860.8/5
0
0
UV/VIS
1
1
1
RBeamAtt,SBeamAtt,150mm sphere / downward view, WB InGaAs Detector
0
0
0
0
Program
Program
3350/servo 860.8/5
3350/0.2 860.8/0.2
3350/0.2 860.8/0.2
0
9.50
 
 
 
0
 
860.8
319.2
860.8
Front
100
 
S:100 R:100
 
0
0
0
 
0
 
 
 
0
 
 
0
0
0
0
0
 
 
 
 
0
0


0
0
#HDR
-1
-1
#GR
nm
%R
1.0
0.0
1200.000000
-10.000000
91
8
49.250301
8.258829
#DATA
1200.000000	49.250301
1190.000000	48.041354
1180.000000	46.408814
1170.000000	44.406611
1160.000000	41.963505
1150.000000	39.158605
1140.000000	35.983151
1130.000000	32.527200
1120.000000	28.828290
1110.000000	25.091449
1100.000000	21.444252
1090.000000	18.084879
1080.000000	15.187848
1070.000000	13.019283
1060.000000	11.735757
1050.000000	11.407724
1040.000000	12.088649
1030.000000	13.660511
1020.000000	15.954798
1010.000000	18.741577
1000.000000	21.812735
990.000000	24.904259
980.000000	27.765327
970.000000	30.223392
960.000000	32.140319
950.000000	33.382240
940.000000	33.887354
930.000000	33.565056
920.000000	32.439993
910.000000	30.572190
900.000000	28.046059
890.000000	25.042921
880.000000	21.745142
870.000000	18.607392
860.000000	16.068485
850.000000	14.936999
840.000000	14.099922
830.000000	14.201328
820.000000	15.358732
810.000000	17.501628
800.000000	20.377784
790.000000	22.944824
780.000000	23.444501
770.000000	21.148724
760.000000	18.079899
750.000000	16.366154
740.000000	15.634266
730.000000	15.201751
720.000000	14.869565
710.000000	14.530108
700.000000	14.287625
690.000000	14.148800
680.000000	14.159255
670.000000	14.317162
660.000000	14.534313
650.000000	14.713302
640.000000	14.835161
630.000000	14.797158
620.000000	14.671109
610.000000	14.560449
600.000000	14.498551
590.000000	14.517392
580.000000	14.542480
570.000000	14.559043
560.000000	14.502364
550.000000	14.428019
540.000000	14.343784
530.000000	14.185741
520.000000	14.000554
510.000000	13.895285
500.000000	13.888073
490.000000	13.462781
480.000000	12.868043
470.000000	12.481814
460.000000	12.251351
450.000000	12.019128
440.000000	11.988414
430.000000	11.999100
420.000000	11.979973
410.000000	11.902988
400.000000	11.606618
390.000000	11.218907
380.000000	10.769529
370.000000	10.196717
360.000000	9.815273
350.000000	9.367132
340.000000	9.050556
330.000000	8.737944
320.000000	8.258829
310.000000	8.384723
300.000000	9.681175
