PE UV       SUBTECH     SPECTRUM    ASCII       PEDS        4.00        
   -1
10_TR.Sample.asc
23/04/05
09:54:28.00
23/04/05
09:54:28.00
Analyst

300.000000
1
Lambda 950
950L1311181
PerkinElmer UV WinLab 6.0.4.0738 / 1.61.00 Lambda 900

0
0
3350/servo 860.8/5
0
0
UV/VIS
1
1
1
RBeamAtt,SBeamAtt,150mm sphere / downward view, WB InGaAs Detector
0
0
0
0
Program
Program
3350/servo 860.8/5
3350/0.2 860.8/0.2
3350/0.2 860.8/0.2
0
9.50
 
 
 
0
 
860.8
319.2
860.8
Front
100
 
S:100 R:100
 
0
0
0
 
0
 
 
 
0
 
 
0
0
0
0
0
 
 
 
 
0
0


0
0
#HDR
-1
-1
#GR
nm
%R
1.0
0.0
1200.000000
-10.000000
91
8
50.276435
6.943854
#DATA
1200.000000	49.430594
1190.000000	50.012938
1180.000000	50.276435
1170.000000	50.183011
1160.000000	49.725264
1150.000000	48.845315
1140.000000	47.564878
1130.000000	45.829890
1120.000000	43.656568
1110.000000	41.025414
1100.000000	37.907278
1090.000000	34.366448
1080.000000	30.453321
1070.000000	26.321119
1060.000000	22.195109
1050.000000	18.251559
1040.000000	14.786008
1030.000000	12.080182
1020.000000	10.379129
1010.000000	9.814008
1000.000000	10.412418
990.000000	12.093170
980.000000	14.624566
970.000000	17.708752
960.000000	21.142084
950.000000	24.561837
940.000000	27.701851
930.000000	30.330092
920.000000	32.374959
910.000000	33.627948
900.000000	34.036787
890.000000	33.527491
880.000000	32.067937
870.000000	29.674034
860.000000	26.514962
850.000000	25.239250
840.000000	22.002688
830.000000	18.566767
820.000000	15.516451
810.000000	13.662631
800.000000	13.748178
790.000000	16.170434
780.000000	19.459971
770.000000	20.719010
760.000000	19.016587
750.000000	17.461054
740.000000	16.886813
730.000000	16.642425
720.000000	16.437733
710.000000	16.145399
700.000000	15.816594
690.000000	15.406933
680.000000	14.986999
670.000000	14.748521
660.000000	14.629383
650.000000	14.715733
640.000000	14.948292
630.000000	15.188943
620.000000	15.355658
610.000000	15.349673
600.000000	15.237966
590.000000	15.103481
580.000000	15.033944
570.000000	14.993976
560.000000	14.977968
550.000000	14.888963
540.000000	14.778352
530.000000	14.623792
520.000000	14.400931
510.000000	14.166692
500.000000	13.890255
490.000000	13.317411
480.000000	12.705252
470.000000	12.158412
460.000000	11.695288
450.000000	11.355046
440.000000	11.253743
430.000000	11.200479
420.000000	11.187883
410.000000	11.079712
400.000000	10.773434
390.000000	10.272288
380.000000	9.689700
370.000000	8.987963
360.000000	8.504111
350.000000	7.888475
340.000000	7.485165
330.000000	7.213476
320.000000	6.943854
310.000000	7.382511
300.000000	9.048006
