PE UV       SUBTECH     SPECTRUM    ASCII       PEDS        4.00        
   -1
1_TR.Sample.asc
23/04/05
09:28:21.00
23/04/05
09:28:21.00
Analyst

300.000000
1
Lambda 950
950L1311181
PerkinElmer UV WinLab 6.0.4.0738 / 1.61.00 Lambda 900

0
0
3350/servo 860.8/5
0
0
UV/VIS
1
1
1
RBeamAtt,SBeamAtt,150mm sphere / downward view, WB InGaAs Detector
0
0
0
0
Program
Program
3350/servo 860.8/5
3350/0.2 860.8/0.2
3350/0.2 860.8/0.2
0
9.50
 
 
 
0
 
860.8
319.2
860.8
Front
100
 
S:100 R:100
 
0
0
0
 
0
 
 
 
0
 
 
0
0
0
0
0
 
 
 
 
0
0


0
0
#HDR
-1
-1
#GR
nm
%R
1.0
0.0
1200.000000
-10.000000
91
8
44.498556
7.224687
#DATA
1200.000000	44.498556
1190.000000	44.081100
1180.000000	43.418808
1170.000000	42.537262
1160.000000	41.405628
1150.000000	40.063643
1140.000000	38.504602
1130.000000	36.737941
1120.000000	34.809002
1110.000000	32.752206
1100.000000	30.563315
1090.000000	28.310342
1080.000000	26.017847
1070.000000	23.832413
1060.000000	21.806939
1050.000000	20.050796
1040.000000	18.657290
1030.000000	17.742388
1020.000000	17.358758
1010.000000	17.527764
1000.000000	18.218495
990.000000	19.351815
980.000000	20.811722
970.000000	22.437438
960.000000	24.134239
950.000000	25.689805
940.000000	27.022937
930.000000	28.003436
920.000000	28.636497
910.000000	28.803657
900.000000	28.522997
890.000000	27.812040
880.000000	26.670352
870.000000	25.182658
860.000000	23.382801
850.000000	22.607820
840.000000	20.974773
830.000000	19.545348
820.000000	18.267607
810.000000	17.549470
800.000000	17.721835
790.000000	18.892617
780.000000	19.919024
770.000000	19.479669
760.000000	17.897306
750.000000	16.826603
740.000000	16.399398
730.000000	16.190640
720.000000	16.022783
710.000000	15.812646
700.000000	15.596921
690.000000	15.387337
680.000000	15.182852
670.000000	15.077229
660.000000	15.055417
650.000000	15.087458
640.000000	15.197946
630.000000	15.324182
620.000000	15.417984
610.000000	15.405038
600.000000	15.366526
590.000000	15.313641
580.000000	15.290250
570.000000	15.283495
560.000000	15.246697
550.000000	15.215315
540.000000	15.146291
530.000000	15.008656
520.000000	14.808542
510.000000	14.598991
500.000000	14.345899
490.000000	13.839750
480.000000	13.287616
470.000000	12.740954
460.000000	12.339536
450.000000	12.071569
440.000000	12.061594
430.000000	12.107301
420.000000	12.185462
410.000000	12.179789
400.000000	11.962813
390.000000	11.547842
380.000000	11.052149
370.000000	10.419077
360.000000	9.980631
350.000000	9.326261
340.000000	8.853627
330.000000	8.377252
320.000000	7.913255
310.000000	8.036278
300.000000	7.224687
