PE UV       SUBTECH     SPECTRUM    ASCII       PEDS        4.00        
   -1
2_TR.Sample.asc
23/04/05
09:30:54.00
23/04/05
09:30:54.00
Analyst

300.000000
1
Lambda 950
950L1311181
PerkinElmer UV WinLab 6.0.4.0738 / 1.61.00 Lambda 900

0
0
3350/servo 860.8/5
0
0
UV/VIS
1
1
1
RBeamAtt,SBeamAtt,150mm sphere / downward view, WB InGaAs Detector
0
0
0
0
Program
Program
3350/servo 860.8/5
3350/0.2 860.8/0.2
3350/0.2 860.8/0.2
0
9.50
 
 
 
0
 
860.8
319.2
860.8
Front
100
 
S:100 R:100
 
0
0
0
 
0
 
 
 
0
 
 
0
0
0
0
0
 
 
 
 
0
0


0
0
#HDR
-1
-1
#GR
nm
%R
1.0
0.0
1200.000000
-10.000000
91
8
49.541754
7.061068
#DATA
1200.000000	49.541754
1190.000000	48.100632
1180.000000	46.161274
1170.000000	43.874208
1160.000000	41.144777
1150.000000	38.021473
1140.000000	34.539326
1130.000000	30.761526
1120.000000	26.813745
1110.000000	22.908682
1100.000000	19.204613
1090.000000	15.947148
1080.000000	13.351222
1070.000000	11.688436
1060.000000	11.074011
1050.000000	11.538294
1040.000000	13.037792
1030.000000	15.386106
1020.000000	18.324529
1010.000000	21.590874
1000.000000	24.958647
990.000000	28.126483
980.000000	30.885136
970.000000	33.088018
960.000000	34.684805
950.000000	35.503423
940.000000	35.532302
930.000000	34.674091
920.000000	33.024863
910.000000	30.556711
900.000000	27.468735
890.000000	23.967778
880.000000	20.344448
870.000000	17.049286
860.000000	14.724026
850.000000	13.527152
840.000000	13.436945
830.000000	14.522046
820.000000	16.747153
810.000000	19.834602
800.000000	23.363404
790.000000	25.905964
780.000000	25.424610
770.000000	21.248164
760.000000	17.456777
750.000000	16.115900
740.000000	15.628697
730.000000	15.276808
720.000000	14.896026
710.000000	14.593348
700.000000	14.420765
690.000000	14.415846
680.000000	14.531386
670.000000	14.809143
660.000000	15.044324
650.000000	15.223262
640.000000	15.260469
630.000000	15.140090
620.000000	14.973939
610.000000	14.820705
600.000000	14.793985
590.000000	14.824723
580.000000	14.858209
570.000000	14.854329
560.000000	14.775810
550.000000	14.682450
540.000000	14.577768
530.000000	14.404156
520.000000	14.186363
510.000000	13.916289
500.000000	13.593938
490.000000	13.097571
480.000000	12.555665
470.000000	12.000803
460.000000	11.536014
450.000000	11.235293
440.000000	11.154780
430.000000	11.143992
420.000000	11.178246
410.000000	11.124223
400.000000	10.847427
390.000000	10.395737
380.000000	9.863436
370.000000	9.240738
360.000000	8.812154
350.000000	8.157008
340.000000	7.731027
330.000000	7.384197
320.000000	7.061068
310.000000	7.374425
300.000000	8.708911
