PE UV       SUBTECH     SPECTRUM    ASCII       PEDS        4.00        
   -1
4_TR.Sample.asc
23/04/05
09:36:32.00
23/04/05
09:36:32.00
Analyst

300.000000
1
Lambda 950
950L1311181
PerkinElmer UV WinLab 6.0.4.0738 / 1.61.00 Lambda 900

0
0
3350/servo 860.8/5
0
0
UV/VIS
1
1
1
RBeamAtt,SBeamAtt,150mm sphere / downward view, WB InGaAs Detector
0
0
0
0
Program
Program
3350/servo 860.8/5
3350/0.2 860.8/0.2
3350/0.2 860.8/0.2
0
9.50
 
 
 
0
 
860.8
319.2
860.8
Front
100
 
S:100 R:100
 
0
0
0
 
0
 
 
 
0
 
 
0
0
0
0
0
 
 
 
 
0
0


0
0
#HDR
-1
-1
#GR
nm
%R
1.0
0.0
1200.000000
-10.000000
91
8
51.055025
6.714458
#DATA
1200.000000	51.055025
1190.000000	50.029834
1180.000000	48.552901
1170.000000	46.689118
1160.000000	44.354876
1150.000000	41.563883
1140.000000	38.332787
1130.000000	34.672413
1120.000000	30.675098
1110.000000	26.514120
1100.000000	22.344083
1090.000000	18.402162
1080.000000	14.924016
1070.000000	12.233740
1060.000000	10.564904
1050.000000	10.012936
1040.000000	10.624146
1030.000000	12.297108
1020.000000	14.810796
1010.000000	17.899432
1000.000000	21.341917
990.000000	24.827182
980.000000	28.077645
970.000000	30.903400
960.000000	33.187735
950.000000	34.788144
940.000000	35.619872
930.000000	35.532527
920.000000	34.583052
910.000000	32.709159
900.000000	30.038344
890.000000	26.651579
880.000000	22.864851
870.000000	19.138222
860.000000	16.009491
850.000000	14.702414
840.000000	13.625906
830.000000	13.644974
820.000000	15.074903
810.000000	17.805139
800.000000	21.524464
790.000000	24.916898
780.000000	25.543371
770.000000	22.041521
760.000000	18.261323
750.000000	16.809556
740.000000	16.300244
730.000000	15.894482
720.000000	15.523344
710.000000	15.132290
700.000000	14.878444
690.000000	14.771163
680.000000	14.801321
670.000000	15.025341
660.000000	15.294607
650.000000	15.528387
640.000000	15.658472
630.000000	15.637767
620.000000	15.525727
610.000000	15.380276
600.000000	15.302115
590.000000	15.353139
580.000000	15.420194
570.000000	15.429783
560.000000	15.374946
550.000000	15.332187
540.000000	15.224867
530.000000	15.099335
520.000000	14.905629
510.000000	14.658519
500.000000	14.363786
490.000000	13.904639
480.000000	13.362410
470.000000	12.783186
460.000000	12.320870
450.000000	12.012431
440.000000	11.939800
430.000000	11.926995
420.000000	11.994645
410.000000	11.985055
400.000000	11.755563
390.000000	11.303746
380.000000	10.782765
370.000000	10.092003
360.000000	9.613840
350.000000	8.866115
340.000000	8.286153
330.000000	7.840016
320.000000	7.393448
310.000000	7.473665
300.000000	6.714458
