PE UV       SUBTECH     SPECTRUM    ASCII       PEDS        4.00        
   -1
6_TR.Sample.asc
23/04/05
09:42:00.00
23/04/05
09:42:00.00
Analyst

300.000000
1
Lambda 950
950L1311181
PerkinElmer UV WinLab 6.0.4.0738 / 1.61.00 Lambda 900

0
0
3350/servo 860.8/5
0
0
UV/VIS
1
1
1
RBeamAtt,SBeamAtt,150mm sphere / downward view, WB InGaAs Detector
0
0
0
0
Program
Program
3350/servo 860.8/5
3350/0.2 860.8/0.2
3350/0.2 860.8/0.2
0
9.50
 
 
 
0
 
860.8
319.2
860.8
Front
100
 
S:100 R:100
 
0
0
0
 
0
 
 
 
0
 
 
0
0
0
0
0
 
 
 
 
0
0


0
0
#HDR
-1
-1
#GR
nm
%R
1.0
0.0
1200.000000
-10.000000
91
8
46.724783
5.519370
#DATA
1200.000000	46.724783
1190.000000	46.709470
1180.000000	46.445133
1170.000000	45.871755
1160.000000	44.952601
1150.000000	43.688877
1140.000000	42.100011
1130.000000	40.150135
1120.000000	37.873648
1110.000000	35.325722
1100.000000	32.514292
1090.000000	29.556906
1080.000000	26.516611
1070.000000	23.585728
1060.000000	20.908822
1050.000000	18.638060
1040.000000	16.920954
1030.000000	15.895229
1020.000000	15.594550
1010.000000	15.992380
1000.000000	17.037550
990.000000	18.611312
980.000000	20.506690
970.000000	22.553114
960.000000	24.627730
950.000000	26.530962
940.000000	28.119480
930.000000	29.300375
920.000000	29.965707
910.000000	30.085578
900.000000	29.610262
890.000000	28.570764
880.000000	26.993342
870.000000	24.966593
860.000000	22.737056
850.000000	21.774688
840.000000	19.825502
830.000000	18.169303
820.000000	16.947603
810.000000	16.648535
800.000000	17.459304
790.000000	19.358170
780.000000	20.620460
770.000000	19.743125
760.000000	17.631685
750.000000	16.458025
740.000000	16.024216
730.000000	15.792795
720.000000	15.572948
710.000000	15.311681
700.000000	15.068302
690.000000	14.800042
680.000000	14.588737
670.000000	14.507503
660.000000	14.514381
650.000000	14.597035
640.000000	14.715247
630.000000	14.809524
620.000000	14.813720
610.000000	14.776239
600.000000	14.678604
590.000000	14.600232
580.000000	14.556375
570.000000	14.499443
560.000000	14.428105
550.000000	14.349377
540.000000	14.222736
530.000000	14.034202
520.000000	13.764459
510.000000	13.444334
500.000000	13.082276
490.000000	12.526543
480.000000	11.934645
470.000000	11.305758
460.000000	10.767470
450.000000	10.383449
440.000000	10.214805
430.000000	10.085238
420.000000	10.001658
410.000000	9.800026
400.000000	9.360246
390.000000	8.752812
380.000000	8.051515
370.000000	7.275622
360.000000	6.786573
350.000000	6.158400
340.000000	5.818221
330.000000	5.653511
320.000000	5.519370
310.000000	6.208001
300.000000	10.174281
