PE UV       SUBTECH     SPECTRUM    ASCII       PEDS        4.00        
   -1
7_TT.Sample.asc
23/04/05
09:16:10.00
23/04/05
09:16:10.00
Analyst

300.000000
1
Lambda 950
950L1311181
PerkinElmer UV WinLab 6.0.4.0738 / 1.61.00 Lambda 900

0
0
3350/servo 860.8/5
0
0
UV/VIS
1
1
1
RBeamAtt,SBeamAtt,150mm sphere / downward view, WB InGaAs Detector
0
0
0
0
Program
Program
3350/servo 860.8/5
3350/0.2 860.8/0.2
3350/0.2 860.8/0.2
0
9.50
 
 
 
0
 
860.8
319.2
860.8
Front
100
 
S:100 R:100
 
0
0
0
 
0
 
 
 
0
 
 
0
0
0
0
0
 
 
 
 
0
0


0
0
#HDR
-1
-1
#GR
nm
%R
1.0
0.0
1200.000000
-10.000000
91
8
74.891915
-0.463855
#DATA
1200.000000	39.682306
1190.000000	40.357584
1180.000000	41.283211
1170.000000	42.482307
1160.000000	43.985690
1150.000000	45.748083
1140.000000	47.788134
1130.000000	50.102838
1120.000000	52.658535
1110.000000	55.398355
1100.000000	58.217976
1090.000000	61.023975
1080.000000	63.791019
1070.000000	66.303872
1060.000000	68.388276
1050.000000	69.884284
1040.000000	70.814956
1030.000000	71.066396
1020.000000	70.614219
1010.000000	69.575289
1000.000000	68.072083
990.000000	66.219717
980.000000	64.291768
970.000000	62.322358
960.000000	60.678542
950.000000	59.354015
940.000000	58.531553
930.000000	58.185237
920.000000	58.490654
910.000000	59.314977
900.000000	60.820316
890.000000	62.767647
880.000000	65.227212
870.000000	67.861866
860.000000	70.551565
850.000000	71.029349
840.000000	72.519630
830.000000	74.464055
820.000000	74.891915
810.000000	73.734736
800.000000	71.023657
790.000000	65.837558
780.000000	56.383405
770.000000	40.798553
760.000000	24.761089
750.000000	16.071224
740.000000	13.043351
730.000000	11.950291
720.000000	11.326105
710.000000	10.734640
700.000000	10.133895
690.000000	9.461527
680.000000	8.677591
670.000000	7.955142
660.000000	7.200556
650.000000	6.446876
640.000000	5.693871
630.000000	4.984258
620.000000	4.334020
610.000000	3.757445
600.000000	3.241402
590.000000	2.815360
580.000000	2.477941
570.000000	2.214866
560.000000	2.016603
550.000000	1.944149
540.000000	1.879638
530.000000	1.824399
520.000000	1.822177
510.000000	1.988577
500.000000	2.162783
490.000000	2.011835
480.000000	1.948453
470.000000	1.957307
460.000000	1.940332
450.000000	1.818310
440.000000	1.797654
430.000000	1.743535
420.000000	1.689746
410.000000	1.652290
400.000000	1.599086
390.000000	1.544341
380.000000	1.497538
370.000000	1.448060
360.000000	1.631621
350.000000	1.471101
340.000000	1.318700
330.000000	0.889007
320.000000	-0.055477
310.000000	-0.463855
300.000000	2.009075
