PE UV       SUBTECH     SPECTRUM    ASCII       PEDS        4.00        
   -1
9_TR.Sample.asc
23/04/05
09:51:27.00
23/04/05
09:51:27.00
Analyst

300.000000
1
Lambda 950
950L1311181
PerkinElmer UV WinLab 6.0.4.0738 / 1.61.00 Lambda 900

0
0
3350/servo 860.8/5
0
0
UV/VIS
1
1
1
RBeamAtt,SBeamAtt,150mm sphere / downward view, WB InGaAs Detector
0
0
0
0
Program
Program
3350/servo 860.8/5
3350/0.2 860.8/0.2
3350/0.2 860.8/0.2
0
9.50
 
 
 
0
 
860.8
319.2
860.8
Front
100
 
S:100 R:100
 
0
0
0
 
0
 
 
 
0
 
 
0
0
0
0
0
 
 
 
 
0
0


0
0
#HDR
-1
-1
#GR
nm
%R
1.0
0.0
1200.000000
-10.000000
91
8
51.322584
4.798213
#DATA
1200.000000	51.322584
1190.000000	50.436573
1180.000000	49.319010
1170.000000	48.039260
1160.000000	46.536267
1150.000000	44.805962
1140.000000	42.858553
1130.000000	40.679179
1120.000000	38.248287
1110.000000	35.641380
1100.000000	32.796298
1090.000000	29.775109
1080.000000	26.619581
1070.000000	23.440762
1060.000000	20.298919
1050.000000	17.290143
1040.000000	14.540718
1030.000000	12.168508
1020.000000	10.283641
1010.000000	8.974810
1000.000000	8.250366
990.000000	8.178444
980.000000	8.699907
970.000000	9.784457
960.000000	11.347584
950.000000	13.284847
940.000000	15.465985
930.000000	17.741107
920.000000	20.094802
910.000000	22.374661
900.000000	24.504391
890.000000	26.434996
880.000000	28.077821
870.000000	29.384238
860.000000	30.313871
850.000000	30.410112
840.000000	30.637058
830.000000	30.849982
820.000000	30.118518
810.000000	28.916157
800.000000	27.123092
790.000000	24.957666
780.000000	21.756802
770.000000	17.746950
760.000000	13.827299
750.000000	12.057344
740.000000	12.068097
730.000000	12.243904
720.000000	12.304222
710.000000	12.375021
700.000000	12.544981
690.000000	12.852935
680.000000	13.239493
670.000000	13.722012
660.000000	14.212361
650.000000	14.645052
640.000000	14.924466
630.000000	14.974197
620.000000	14.805875
610.000000	14.409789
600.000000	13.930985
590.000000	13.483980
580.000000	13.187023
570.000000	13.094670
560.000000	13.077209
550.000000	13.137536
540.000000	13.091709
530.000000	12.934540
520.000000	12.711487
510.000000	12.380407
500.000000	12.006163
490.000000	11.607639
480.000000	11.173506
470.000000	10.667226
460.000000	10.215769
450.000000	9.855123
440.000000	9.711570
430.000000	9.610005
420.000000	9.581044
410.000000	9.546871
400.000000	9.401905
390.000000	9.130777
380.000000	8.829489
370.000000	8.475367
360.000000	8.359716
350.000000	7.977136
340.000000	7.732594
330.000000	7.547969
320.000000	7.253889
310.000000	7.311282
300.000000	4.798213
