PE UV       SUBTECH     SPECTRUM    ASCII       PEDS        4.00        
   -1
10_TR.Sample.asc
23/03/29
10:14:32.00
23/03/29
10:14:32.00
Analyst

300.000000
1
Lambda 950
950L1311181
PerkinElmer UV WinLab 6.0.4.0738 / 1.61.00 Lambda 900

0
0
3350/servo 860.8/5
0
0
UV/VIS
1
1
1
RBeamAtt,SBeamAtt,150mm sphere / downward view, WB InGaAs Detector
0
0
0
0
Program
Program
3350/servo 860.8/5
3350/0.2 860.8/0.2
3350/0.2 860.8/0.2
0
9.50
 
 
 
0
 
860.8
319.2
860.8
Front
100
 
S:100 R:100
 
0
0
0
 
0
 
 
 
0
 
 
0
0
0
0
0
 
 
 
 
0
0


0
0
#HDR
-1
-1
#GR
nm
%R
1.0
0.0
1200.000000
-10.000000
91
8
40.575744
-3.815079
#DATA
1200.000000	40.575744
1190.000000	39.543634
1180.000000	38.308016
1170.000000	37.004912
1160.000000	35.446747
1150.000000	33.786449
1140.000000	31.926842
1130.000000	29.931124
1120.000000	27.815852
1110.000000	25.363931
1100.000000	23.264634
1090.000000	20.803328
1080.000000	18.648521
1070.000000	16.442514
1060.000000	14.463582
1050.000000	12.802512
1040.000000	11.444750
1030.000000	10.217747
1020.000000	9.868723
1010.000000	9.482952
1000.000000	9.798308
990.000000	10.449691
980.000000	11.376150
970.000000	12.544647
960.000000	13.605321
950.000000	15.727268
940.000000	17.238414
930.000000	18.400497
920.000000	20.194065
910.000000	21.066305
900.000000	22.418011
890.000000	23.623944
880.000000	24.031052
870.000000	24.833676
860.000000	25.255939
850.000000	24.700235
840.000000	24.864651
830.000000	23.733881
820.000000	22.872578
810.000000	21.262447
800.000000	19.863232
790.000000	17.661974
780.000000	15.296270
770.000000	13.281887
760.000000	12.179617
750.000000	11.460263
740.000000	11.035546
730.000000	10.909922
720.000000	10.969181
710.000000	10.992888
700.000000	11.111883
690.000000	11.315894
680.000000	11.598667
670.000000	11.863486
660.000000	12.033830
650.000000	12.180693
640.000000	12.194270
630.000000	12.030545
620.000000	11.831624
610.000000	11.573744
600.000000	11.393564
590.000000	11.293246
580.000000	11.292564
570.000000	11.391902
560.000000	11.518477
550.000000	11.529428
540.000000	11.633209
530.000000	11.651688
520.000000	11.644571
510.000000	11.570194
500.000000	11.434558
490.000000	11.225967
480.000000	11.030955
470.000000	10.806026
460.000000	10.612383
450.000000	10.489462
440.000000	10.529664
430.000000	10.536697
420.000000	10.613001
410.000000	10.745185
400.000000	10.884990
390.000000	10.848472
380.000000	10.715706
370.000000	10.516565
360.000000	10.322231
350.000000	9.906108
340.000000	9.476392
330.000000	8.896176
320.000000	8.286953
310.000000	6.877554
300.000000	-3.815079
