PE UV       SUBTECH     SPECTRUM    ASCII       PEDS        4.00        
   -1
3_TR.Sample.asc
23/03/29
09:54:05.00
23/03/29
09:54:05.00
Analyst

300.000000
1
Lambda 950
950L1311181
PerkinElmer UV WinLab 6.0.4.0738 / 1.61.00 Lambda 900

0
0
3350/servo 860.8/5
0
0
UV/VIS
1
1
1
RBeamAtt,SBeamAtt,150mm sphere / downward view, WB InGaAs Detector
0
0
0
0
Program
Program
3350/servo 860.8/5
3350/0.2 860.8/0.2
3350/0.2 860.8/0.2
0
9.50
 
 
 
0
 
860.8
319.2
860.8
Front
100
 
S:100 R:100
 
0
0
0
 
0
 
 
 
0
 
 
0
0
0
0
0
 
 
 
 
0
0


0
0
#HDR
-1
-1
#GR
nm
%R
1.0
0.0
1200.000000
-10.000000
91
8
33.129071
-71.684597
#DATA
1200.000000	33.120548
1190.000000	33.129071
1180.000000	32.977985
1170.000000	32.897266
1160.000000	32.691277
1150.000000	32.445645
1140.000000	32.238309
1130.000000	31.888588
1120.000000	31.714961
1110.000000	31.209392
1100.000000	30.693348
1090.000000	30.297578
1080.000000	29.807631
1070.000000	29.569961
1060.000000	28.784969
1050.000000	28.117837
1040.000000	27.437536
1030.000000	26.850969
1020.000000	26.151817
1010.000000	25.521376
1000.000000	24.997752
990.000000	24.325955
980.000000	23.922878
970.000000	23.346441
960.000000	22.843730
950.000000	22.409634
940.000000	21.837854
930.000000	21.536159
920.000000	21.130348
910.000000	21.291523
900.000000	19.928624
890.000000	21.396623
880.000000	20.809455
870.000000	21.064814
860.000000	21.392848
850.000000	20.268897
840.000000	20.535622
830.000000	20.173767
820.000000	20.598339
810.000000	20.673173
800.000000	21.147533
790.000000	21.074260
780.000000	21.271623
770.000000	21.265263
760.000000	20.634616
750.000000	19.522958
740.000000	18.456147
730.000000	17.664560
720.000000	17.464603
710.000000	17.138709
700.000000	16.972530
690.000000	16.910883
680.000000	16.886030
670.000000	16.842444
660.000000	16.856704
650.000000	16.853867
640.000000	16.759785
630.000000	16.800493
620.000000	16.892731
610.000000	16.839887
600.000000	17.019564
590.000000	17.106512
580.000000	17.236180
570.000000	17.355655
560.000000	17.494812
550.000000	17.623985
540.000000	17.710702
530.000000	17.802627
520.000000	17.931203
510.000000	18.079262
500.000000	18.171321
490.000000	17.931968
480.000000	17.664122
470.000000	17.413569
460.000000	17.025467
450.000000	16.653784
440.000000	16.435151
430.000000	16.409651
420.000000	16.514437
410.000000	16.549933
400.000000	16.636661
390.000000	16.651723
380.000000	16.533443
370.000000	15.994042
360.000000	15.451363
350.000000	14.464693
340.000000	13.456267
330.000000	12.398302
320.000000	11.398762
310.000000	5.690627
300.000000	-71.684597
