PE UV       SUBTECH     SPECTRUM    ASCII       PEDS        4.00        
   -1
6_TR.Sample.asc
23/03/29
10:02:18.00
23/03/29
10:02:18.00
Analyst

300.000000
1
Lambda 950
950L1311181
PerkinElmer UV WinLab 6.0.4.0738 / 1.61.00 Lambda 900

0
0
3350/servo 860.8/5
0
0
UV/VIS
1
1
1
RBeamAtt,SBeamAtt,150mm sphere / downward view, WB InGaAs Detector
0
0
0
0
Program
Program
3350/servo 860.8/5
3350/0.2 860.8/0.2
3350/0.2 860.8/0.2
0
9.50
 
 
 
0
 
860.8
319.2
860.8
Front
100
 
S:100 R:100
 
0
0
0
 
0
 
 
 
0
 
 
0
0
0
0
0
 
 
 
 
0
0


0
0
#HDR
-1
-1
#GR
nm
%R
1.0
0.0
1200.000000
-10.000000
91
8
280.512227
10.788805
#DATA
1200.000000	34.652992
1190.000000	33.725445
1180.000000	32.711484
1170.000000	31.650909
1160.000000	30.557365
1150.000000	29.295518
1140.000000	28.280086
1130.000000	26.973551
1120.000000	25.981817
1110.000000	24.839241
1100.000000	23.626422
1090.000000	22.536962
1080.000000	21.529437
1070.000000	20.562087
1060.000000	19.527053
1050.000000	18.837355
1040.000000	18.530701
1030.000000	18.019124
1020.000000	17.995956
1010.000000	17.730358
1000.000000	17.970005
990.000000	17.911679
980.000000	18.728327
970.000000	18.993069
960.000000	19.831280
950.000000	20.401598
940.000000	20.925271
930.000000	21.290071
920.000000	21.722853
910.000000	22.758837
900.000000	23.033335
890.000000	23.785441
880.000000	23.752606
870.000000	23.611354
860.000000	22.059932
850.000000	22.882523
840.000000	23.089628
830.000000	22.512917
820.000000	22.191931
810.000000	21.505612
800.000000	21.162118
790.000000	20.249492
780.000000	19.577413
770.000000	18.400527
760.000000	17.028526
750.000000	15.800564
740.000000	14.882130
730.000000	14.628348
720.000000	14.475885
710.000000	14.527804
700.000000	14.534456
690.000000	14.582331
680.000000	14.687655
670.000000	14.845464
660.000000	15.065383
650.000000	15.107082
640.000000	15.229251
630.000000	15.268711
620.000000	15.320964
610.000000	15.287596
600.000000	15.261793
590.000000	15.266715
580.000000	15.281773
570.000000	15.328238
560.000000	15.454185
550.000000	15.577890
540.000000	15.723011
530.000000	15.783093
520.000000	15.867092
510.000000	15.999693
500.000000	15.983932
490.000000	15.779727
480.000000	15.455064
470.000000	15.183712
460.000000	14.966246
450.000000	14.655452
440.000000	14.514575
430.000000	14.489628
420.000000	14.551835
410.000000	14.579200
400.000000	14.609131
390.000000	14.504057
380.000000	14.320578
370.000000	13.958641
360.000000	13.571257
350.000000	12.868792
340.000000	12.084764
330.000000	11.430414
320.000000	10.788805
310.000000	24.810731
300.000000	280.512227
