PE UV       SUBTECH     SPECTRUM    ASCII       PEDS        4.00        
   -1
8_TR.Sample.asc
23/03/29
10:07:39.00
23/03/29
10:07:39.00
Analyst

300.000000
1
Lambda 950
950L1311181
PerkinElmer UV WinLab 6.0.4.0738 / 1.61.00 Lambda 900

0
0
3350/servo 860.8/5
0
0
UV/VIS
1
1
1
RBeamAtt,SBeamAtt,150mm sphere / downward view, WB InGaAs Detector
0
0
0
0
Program
Program
3350/servo 860.8/5
3350/0.2 860.8/0.2
3350/0.2 860.8/0.2
0
9.50
 
 
 
0
 
860.8
319.2
860.8
Front
100
 
S:100 R:100
 
0
0
0
 
0
 
 
 
0
 
 
0
0
0
0
0
 
 
 
 
0
0


0
0
#HDR
-1
-1
#GR
nm
%R
1.0
0.0
1200.000000
-10.000000
91
8
102.415898
8.878995
#DATA
1200.000000	46.136776
1190.000000	45.841055
1180.000000	45.466106
1170.000000	44.812605
1160.000000	44.174947
1150.000000	43.201346
1140.000000	42.136875
1130.000000	40.888260
1120.000000	39.287304
1110.000000	37.722119
1100.000000	35.810891
1090.000000	33.730664
1080.000000	31.533712
1070.000000	29.119839
1060.000000	26.648677
1050.000000	23.911154
1040.000000	21.209684
1030.000000	18.776652
1020.000000	16.460955
1010.000000	14.245286
1000.000000	12.492588
990.000000	11.035583
980.000000	10.040807
970.000000	9.270984
960.000000	9.707095
950.000000	10.073980
940.000000	11.327291
930.000000	12.172147
920.000000	13.812982
910.000000	16.174448
900.000000	17.310847
890.000000	19.253767
880.000000	21.748106
870.000000	23.876096
860.000000	25.501032
850.000000	24.175319
840.000000	24.352937
830.000000	25.772313
820.000000	27.144267
810.000000	26.835221
800.000000	26.659304
790.000000	25.901625
780.000000	24.285055
770.000000	21.594459
760.000000	18.217053
750.000000	15.512101
740.000000	14.190837
730.000000	13.768541
720.000000	13.615524
710.000000	13.249363
700.000000	13.193632
690.000000	13.316462
680.000000	13.442850
670.000000	13.634322
660.000000	13.956445
650.000000	14.307800
640.000000	14.800900
630.000000	15.143312
620.000000	15.378060
610.000000	15.444882
600.000000	15.403707
590.000000	15.155038
580.000000	14.930740
570.000000	14.780485
560.000000	14.775199
550.000000	14.862690
540.000000	14.900358
530.000000	14.862610
520.000000	14.862140
510.000000	14.696607
500.000000	14.515260
490.000000	14.267236
480.000000	13.973701
470.000000	13.569574
460.000000	13.219729
450.000000	12.921239
440.000000	12.773780
430.000000	12.708523
420.000000	12.773279
410.000000	12.853624
400.000000	12.821010
390.000000	12.743636
380.000000	12.422450
370.000000	11.872845
360.000000	11.506001
350.000000	10.871641
340.000000	10.107544
330.000000	9.328894
320.000000	8.878995
310.000000	13.515047
300.000000	102.415898
