PE UV       SUBTECH     SPECTRUM    ASCII       PEDS        4.00        
   -1
Void_TT.Sample.asc
23/03/29
09:11:29.00
23/03/29
09:11:29.00
Analyst

300.000000
1
Lambda 950
950L1311181
PerkinElmer UV WinLab 6.0.4.0738 / 1.61.00 Lambda 900

0
0
3350/servo 860.8/5
0
0
UV/VIS
1
1
1
RBeamAtt,SBeamAtt,150mm sphere / downward view, WB InGaAs Detector
0
0
0
0
Program
Program
3350/servo 860.8/5
3350/0.2 860.8/0.2
3350/0.2 860.8/0.2
0
9.50
 
 
 
0
 
860.8
319.2
860.8
Front
100
 
S:100 R:100
 
0
0
0
 
0
 
 
 
0
 
 
0
0
0
0
0
 
 
 
 
0
0


0
0
#HDR
-1
-1
#GR
nm
%R
1.0
0.0
1200.000000
-10.000000
91
8
101.226074
89.421216
#DATA
1200.000000	98.404931
1190.000000	98.465939
1180.000000	98.403216
1170.000000	98.606302
1160.000000	98.367653
1150.000000	98.427479
1140.000000	98.699493
1130.000000	98.830068
1120.000000	98.833989
1110.000000	98.506010
1100.000000	98.692368
1090.000000	98.549399
1080.000000	98.981243
1070.000000	99.031419
1060.000000	99.060111
1050.000000	98.674219
1040.000000	99.084697
1030.000000	98.632397
1020.000000	99.170120
1010.000000	99.206923
1000.000000	99.206433
990.000000	98.915208
980.000000	99.043124
970.000000	98.606892
960.000000	99.581967
950.000000	99.650204
940.000000	99.902641
930.000000	98.462598
920.000000	98.611888
910.000000	100.166535
900.000000	100.621037
890.000000	101.226074
880.000000	100.091372
870.000000	95.712127
860.000000	93.890017
850.000000	99.408350
840.000000	98.178690
830.000000	99.252549
820.000000	98.862842
810.000000	99.374386
800.000000	98.840640
790.000000	99.079408
780.000000	99.213786
770.000000	99.332517
760.000000	99.034749
750.000000	99.079528
740.000000	98.990972
730.000000	99.155374
720.000000	99.254570
710.000000	99.429277
700.000000	99.290356
690.000000	99.338385
680.000000	98.793798
670.000000	98.927445
660.000000	99.263889
650.000000	98.911259
640.000000	99.042001
630.000000	98.962555
620.000000	99.065466
610.000000	99.090328
600.000000	99.198296
590.000000	99.073691
580.000000	99.143425
570.000000	99.156884
560.000000	99.241522
550.000000	99.210058
540.000000	99.050982
530.000000	99.025881
520.000000	99.070275
510.000000	99.184710
500.000000	99.364550
490.000000	99.471736
480.000000	99.033105
470.000000	99.237836
460.000000	99.113252
450.000000	99.072425
440.000000	99.191665
430.000000	99.076566
420.000000	98.986354
410.000000	99.021839
400.000000	99.134506
390.000000	98.506433
380.000000	98.783568
370.000000	98.332701
360.000000	98.418673
350.000000	98.367630
340.000000	97.649858
330.000000	98.149417
320.000000	98.170261
310.000000	95.554699
300.000000	89.421216
