PE UV       SUBTECH     SPECTRUM    ASCII       PEDS        4.00        
   -1
3_TR.Sample.asc
23/03/29
12:01:43.00
23/03/29
12:01:43.00
Analyst

300.000000
1
Lambda 950
950L1311181
PerkinElmer UV WinLab 6.0.4.0738 / 1.61.00 Lambda 900

0
0
3350/servo 860.8/5
0
0
UV/VIS
1
1
1
RBeamAtt,SBeamAtt,150mm sphere / downward view, WB InGaAs Detector
0
0
0
0
Program
Program
3350/servo 860.8/5
3350/0.2 860.8/0.2
3350/0.2 860.8/0.2
0
9.50
 
 
 
0
 
860.8
319.2
860.8
Front
100
 
S:100 R:100
 
0
0
0
 
0
 
 
 
0
 
 
0
0
0
0
0
 
 
 
 
0
0


0
0
#HDR
-1
-1
#GR
nm
%R
1.0
0.0
1200.000000
-10.000000
91
8
51.165713
6.247697
#DATA
1200.000000	51.165713
1190.000000	50.543048
1180.000000	49.526457
1170.000000	48.129188
1160.000000	46.225864
1150.000000	43.839748
1140.000000	41.006022
1130.000000	37.672554
1120.000000	34.087804
1110.000000	30.022316
1100.000000	25.722621
1090.000000	21.687283
1080.000000	17.515570
1070.000000	14.016858
1060.000000	11.527265
1050.000000	9.734778
1040.000000	9.490873
1030.000000	10.250985
1020.000000	12.113139
1010.000000	14.994606
1000.000000	18.372435
990.000000	21.535653
980.000000	25.235269
970.000000	28.114925
960.000000	30.812376
950.000000	32.865550
940.000000	34.716910
930.000000	35.096235
920.000000	35.253494
910.000000	33.627513
900.000000	31.038579
890.000000	29.683656
880.000000	25.415994
870.000000	21.508630
860.000000	18.092160
850.000000	16.805060
840.000000	13.373039
830.000000	13.405368
820.000000	14.249980
810.000000	16.217148
800.000000	19.643397
790.000000	23.476523
780.000000	24.474857
770.000000	21.831021
760.000000	18.788387
750.000000	17.505395
740.000000	17.021832
730.000000	16.784906
720.000000	16.371369
710.000000	15.923080
700.000000	15.715839
690.000000	15.383211
680.000000	15.238133
670.000000	15.467510
660.000000	15.759639
650.000000	16.038173
640.000000	16.315260
630.000000	16.333382
620.000000	16.287072
610.000000	16.150755
600.000000	16.107600
590.000000	16.134795
580.000000	16.223891
570.000000	16.279464
560.000000	16.271554
550.000000	16.235657
540.000000	16.146241
530.000000	16.049899
520.000000	15.843822
510.000000	15.666492
500.000000	15.426200
490.000000	14.915696
480.000000	14.268619
470.000000	13.741376
460.000000	13.219816
450.000000	12.897844
440.000000	12.718396
430.000000	12.603012
420.000000	12.650437
410.000000	12.479716
400.000000	12.135376
390.000000	11.556160
380.000000	10.801206
370.000000	9.830398
360.000000	8.903919
350.000000	7.937994
340.000000	7.319014
330.000000	6.643279
320.000000	6.247697
310.000000	6.876784
300.000000	12.097067
