PE UV       SUBTECH     SPECTRUM    ASCII       PEDS        4.00        
   -1
4_TR.Sample.asc
23/03/29
12:04:21.00
23/03/29
12:04:21.00
Analyst

300.000000
1
Lambda 950
950L1311181
PerkinElmer UV WinLab 6.0.4.0738 / 1.61.00 Lambda 900

0
0
3350/servo 860.8/5
0
0
UV/VIS
1
1
1
RBeamAtt,SBeamAtt,150mm sphere / downward view, WB InGaAs Detector
0
0
0
0
Program
Program
3350/servo 860.8/5
3350/0.2 860.8/0.2
3350/0.2 860.8/0.2
0
9.50
 
 
 
0
 
860.8
319.2
860.8
Front
100
 
S:100 R:100
 
0
0
0
 
0
 
 
 
0
 
 
0
0
0
0
0
 
 
 
 
0
0


0
0
#HDR
-1
-1
#GR
nm
%R
1.0
0.0
1200.000000
-10.000000
91
8
51.143803
-68.513173
#DATA
1200.000000	51.143803
1190.000000	50.034365
1180.000000	48.350737
1170.000000	46.411133
1160.000000	43.897233
1150.000000	40.960022
1140.000000	37.494027
1130.000000	33.504663
1120.000000	29.507789
1110.000000	25.349477
1100.000000	21.185403
1090.000000	17.262077
1080.000000	13.934999
1070.000000	11.274742
1060.000000	9.973370
1050.000000	10.059435
1040.000000	10.964471
1030.000000	13.113983
1020.000000	15.929402
1010.000000	19.187191
1000.000000	22.444469
990.000000	26.354086
980.000000	29.490589
970.000000	32.187536
960.000000	34.534439
950.000000	35.005023
940.000000	35.871180
930.000000	35.801607
920.000000	34.440433
910.000000	32.421679
900.000000	29.505396
890.000000	25.028402
880.000000	21.076891
870.000000	19.267272
860.000000	16.017943
850.000000	14.051343
840.000000	12.240216
830.000000	13.743070
820.000000	15.882541
810.000000	18.789657
800.000000	22.786276
790.000000	25.818780
780.000000	25.577573
770.000000	21.405291
760.000000	18.211206
750.000000	16.970793
740.000000	16.675003
730.000000	16.336175
720.000000	15.910813
710.000000	15.647165
700.000000	15.376906
690.000000	15.362154
680.000000	15.432693
670.000000	15.741563
660.000000	15.982016
650.000000	16.228855
640.000000	16.301694
630.000000	16.332250
620.000000	16.285852
610.000000	16.180224
600.000000	16.135180
590.000000	16.263774
580.000000	16.340552
570.000000	16.341073
560.000000	16.358830
550.000000	16.379849
540.000000	16.328423
530.000000	16.247127
520.000000	16.152951
510.000000	15.947137
500.000000	15.749915
490.000000	15.319665
480.000000	14.788351
470.000000	14.234926
460.000000	13.831878
450.000000	13.614541
440.000000	13.539528
430.000000	13.548879
420.000000	13.611988
410.000000	13.658122
400.000000	13.482676
390.000000	13.130969
380.000000	12.583922
370.000000	11.805593
360.000000	11.054193
350.000000	10.077514
340.000000	9.185744
330.000000	8.792785
320.000000	8.026231
310.000000	7.298480
300.000000	-68.513173
