PE UV       SUBTECH     SPECTRUM    ASCII       PEDS        4.00        
   -1
6_TR.Sample.asc
23/03/29
12:09:30.00
23/03/29
12:09:30.00
Analyst

300.000000
1
Lambda 950
950L1311181
PerkinElmer UV WinLab 6.0.4.0738 / 1.61.00 Lambda 900

0
0
3350/servo 860.8/5
0
0
UV/VIS
1
1
1
RBeamAtt,SBeamAtt,150mm sphere / downward view, WB InGaAs Detector
0
0
0
0
Program
Program
3350/servo 860.8/5
3350/0.2 860.8/0.2
3350/0.2 860.8/0.2
0
9.50
 
 
 
0
 
860.8
319.2
860.8
Front
100
 
S:100 R:100
 
0
0
0
 
0
 
 
 
0
 
 
0
0
0
0
0
 
 
 
 
0
0


0
0
#HDR
-1
-1
#GR
nm
%R
1.0
0.0
1200.000000
-10.000000
91
8
80.099915
6.265611
#DATA
1200.000000	49.180696
1190.000000	48.929591
1180.000000	48.391302
1170.000000	47.490267
1160.000000	46.196755
1150.000000	44.563044
1140.000000	42.568339
1130.000000	40.124200
1120.000000	37.281211
1110.000000	34.379590
1100.000000	31.077825
1090.000000	27.758467
1080.000000	24.247435
1070.000000	21.084132
1060.000000	18.312282
1050.000000	15.945295
1040.000000	14.485312
1030.000000	13.726617
1020.000000	13.911793
1010.000000	14.946260
1000.000000	16.771987
990.000000	18.729533
980.000000	21.639378
970.000000	24.251456
960.000000	26.678093
950.000000	28.971411
940.000000	30.610554
930.000000	32.038387
920.000000	31.565497
910.000000	32.071590
900.000000	31.267441
890.000000	29.616785
880.000000	27.114357
870.000000	25.567708
860.000000	22.229966
850.000000	21.192092
840.000000	17.260871
830.000000	16.888021
820.000000	16.333692
810.000000	16.247080
800.000000	18.003025
790.000000	20.337577
780.000000	21.703891
770.000000	20.269540
760.000000	17.891292
750.000000	16.897732
740.000000	16.540492
730.000000	16.354324
720.000000	16.169721
710.000000	15.958924
700.000000	15.701103
690.000000	15.436070
680.000000	15.241928
670.000000	15.243010
660.000000	15.260201
650.000000	15.520138
640.000000	15.655515
630.000000	15.761163
620.000000	15.843898
610.000000	15.802440
600.000000	15.733092
590.000000	15.669471
580.000000	15.697734
570.000000	15.715457
560.000000	15.675388
550.000000	15.621532
540.000000	15.574841
530.000000	15.520035
520.000000	15.269838
510.000000	15.023882
500.000000	14.716470
490.000000	14.235009
480.000000	13.652636
470.000000	13.059480
460.000000	12.609237
450.000000	12.358474
440.000000	12.065761
430.000000	11.968904
420.000000	11.926930
410.000000	11.762153
400.000000	11.399891
390.000000	10.763896
380.000000	10.049614
370.000000	9.211394
360.000000	8.355218
350.000000	7.340943
340.000000	6.934370
330.000000	6.495659
320.000000	6.265611
310.000000	10.940115
300.000000	80.099915
