PE UV       SUBTECH     SPECTRUM    ASCII       PEDS        4.00        
   -1
9_TR.Sample.asc
23/03/29
12:17:47.00
23/03/29
12:17:47.00
Analyst

300.000000
1
Lambda 950
950L1311181
PerkinElmer UV WinLab 6.0.4.0738 / 1.61.00 Lambda 900

0
0
3350/servo 860.8/5
0
0
UV/VIS
1
1
1
RBeamAtt,SBeamAtt,150mm sphere / downward view, WB InGaAs Detector
0
0
0
0
Program
Program
3350/servo 860.8/5
3350/0.2 860.8/0.2
3350/0.2 860.8/0.2
0
9.50
 
 
 
0
 
860.8
319.2
860.8
Front
100
 
S:100 R:100
 
0
0
0
 
0
 
 
 
0
 
 
0
0
0
0
0
 
 
 
 
0
0


0
0
#HDR
-1
-1
#GR
nm
%R
1.0
0.0
1200.000000
-10.000000
91
8
2008.466802
7.795655
#DATA
1200.000000	51.562660
1190.000000	50.619034
1180.000000	49.466364
1170.000000	48.136352
1160.000000	46.540977
1150.000000	44.666103
1140.000000	42.589499
1130.000000	40.294189
1120.000000	37.740941
1110.000000	35.026583
1100.000000	32.126159
1090.000000	28.958862
1080.000000	25.669002
1070.000000	22.466726
1060.000000	19.323597
1050.000000	16.358858
1040.000000	13.556401
1030.000000	11.363946
1020.000000	9.742207
1010.000000	8.711991
1000.000000	8.397514
990.000000	8.540513
980.000000	9.354327
970.000000	10.871055
960.000000	12.694920
950.000000	14.898305
940.000000	17.290706
930.000000	19.473365
920.000000	21.913743
910.000000	24.342064
900.000000	25.750808
890.000000	27.735604
880.000000	30.648188
870.000000	31.380526
860.000000	32.214706
850.000000	31.008658
840.000000	29.677693
830.000000	31.126968
820.000000	29.982964
810.000000	28.775051
800.000000	26.921346
790.000000	24.563333
780.000000	21.346209
770.000000	17.243610
760.000000	14.000453
750.000000	12.786690
740.000000	12.898206
730.000000	13.058339
720.000000	13.050997
710.000000	13.159240
700.000000	13.402595
690.000000	13.875222
680.000000	14.272231
670.000000	14.906173
660.000000	15.302233
650.000000	15.800950
640.000000	16.142041
630.000000	16.095473
620.000000	15.947021
610.000000	15.555873
600.000000	15.161162
590.000000	14.807771
580.000000	14.605574
570.000000	14.559217
560.000000	14.720597
550.000000	14.737963
540.000000	14.755066
530.000000	14.613416
520.000000	14.408688
510.000000	14.195890
500.000000	13.893483
490.000000	13.488214
480.000000	13.087559
470.000000	12.646737
460.000000	12.285805
450.000000	11.943988
440.000000	11.751770
430.000000	11.643521
420.000000	11.655723
410.000000	11.636010
400.000000	11.431005
390.000000	11.142649
380.000000	10.884059
370.000000	10.238103
360.000000	9.777668
350.000000	9.116987
340.000000	8.747560
330.000000	8.134599
320.000000	7.795655
310.000000	117.788573
300.000000	2008.466802
