PLQY measurement:
Date: 	05.04.2023 11:37:58
Peak emission wavelength (nm): 770
 PLQY = 	 	1.36E-3
absorded light fraction (%): 87
MAYA saturard: FALSE
USB2000 saturaed: FALSE
wavelength	corrected total emission spec
6.7566E+2	6.5531E-4
6.7588E+2	-9.2232E-4
6.7611E+2	2.4062E-3
6.7633E+2	-3.5586E-4
6.7655E+2	5.4323E-3
6.7677E+2	4.1397E-4
6.7700E+2	3.1001E-4
6.7722E+2	4.9957E-3
6.7744E+2	3.2953E-3
6.7766E+2	4.4206E-3
6.7789E+2	1.7897E-3
6.7811E+2	5.4191E-4
6.7833E+2	5.1173E-4
6.7856E+2	2.4521E-3
6.7878E+2	3.4990E-3
6.7900E+2	3.0277E-3
6.7922E+2	4.2286E-3
6.7945E+2	4.4243E-3
6.7967E+2	-1.3178E-3
6.7989E+2	2.5892E-3
6.8011E+2	-7.0765E-4
6.8034E+2	-2.5950E-4
6.8056E+2	3.9003E-3
6.8078E+2	-5.7502E-4
6.8100E+2	1.9233E-3
6.8123E+2	3.9976E-3
6.8145E+2	3.4900E-3
6.8167E+2	2.6988E-3
6.8189E+2	2.2963E-3
6.8212E+2	3.8305E-3
6.8234E+2	6.2547E-4
6.8256E+2	4.6830E-3
6.8278E+2	1.4600E-3
6.8300E+2	-3.8211E-4
6.8323E+2	2.1756E-3
6.8345E+2	2.1154E-3
6.8367E+2	4.8010E-3
6.8389E+2	-1.1250E-4
6.8412E+2	1.6708E-3
6.8434E+2	3.4059E-3
6.8456E+2	3.5259E-3
6.8478E+2	2.7532E-3
6.8500E+2	-1.5768E-3
6.8523E+2	5.7528E-3
6.8545E+2	4.7555E-3
6.8567E+2	5.4415E-3
6.8589E+2	-4.0209E-4
6.8611E+2	-2.5610E-3
6.8634E+2	9.5351E-4
6.8656E+2	1.2278E-3
6.8678E+2	1.8051E-3
6.8700E+2	4.6088E-3
6.8722E+2	1.9639E-3
6.8745E+2	1.3572E-3
6.8767E+2	-3.5857E-3
6.8789E+2	4.4701E-3
6.8811E+2	3.6577E-3
6.8833E+2	2.5341E-3
6.8856E+2	1.2785E-3
6.8878E+2	1.8340E-3
6.8900E+2	7.0531E-3
6.8922E+2	2.9788E-4
6.8944E+2	4.3252E-4
6.8966E+2	-2.3748E-3
6.8989E+2	5.1079E-3
6.9011E+2	1.1034E-3
6.9033E+2	1.8940E-3
6.9055E+2	5.6719E-3
6.9077E+2	2.6384E-3
6.9099E+2	-5.7501E-4
6.9122E+2	5.2061E-4
6.9144E+2	5.8499E-3
6.9166E+2	9.0456E-4
6.9188E+2	3.6671E-3
6.9210E+2	7.2962E-4
6.9232E+2	3.4431E-4
6.9255E+2	3.8336E-3
6.9277E+2	4.5001E-3
6.9299E+2	6.5906E-5
6.9321E+2	7.8040E-3
6.9343E+2	3.1266E-3
6.9365E+2	6.7537E-3
6.9387E+2	5.9075E-3
6.9410E+2	4.2635E-3
6.9432E+2	1.5275E-3
6.9454E+2	6.0470E-3
6.9476E+2	1.7433E-3
6.9498E+2	1.8322E-3
6.9520E+2	4.6057E-3
6.9542E+2	7.9778E-3
6.9565E+2	5.8177E-3
6.9587E+2	5.4850E-3
6.9609E+2	3.7899E-3
6.9631E+2	8.6874E-3
6.9653E+2	4.7921E-3
6.9675E+2	9.2981E-3
6.9697E+2	2.3314E-3
6.9719E+2	6.8810E-3
6.9742E+2	6.3837E-3
6.9764E+2	4.7666E-3
6.9786E+2	3.2315E-3
6.9808E+2	3.9394E-3
6.9830E+2	4.0981E-3
6.9852E+2	7.2319E-3
6.9874E+2	8.1041E-3
6.9896E+2	6.8280E-3
6.9918E+2	6.1014E-3
6.9941E+2	8.7348E-3
6.9963E+2	3.7692E-3
6.9985E+2	7.1864E-3
7.0007E+2	4.1692E-3
7.0029E+2	8.1910E-3
7.0051E+2	5.0940E-3
7.0073E+2	4.8482E-3
7.0095E+2	4.0185E-3
7.0117E+2	9.9786E-3
7.0139E+2	7.2583E-3
7.0161E+2	1.0589E-2
7.0184E+2	6.1570E-3
7.0206E+2	2.9373E-3
7.0228E+2	8.3209E-3
7.0250E+2	4.6031E-3
7.0272E+2	1.0369E-2
7.0294E+2	8.2171E-3
7.0316E+2	9.4393E-3
7.0338E+2	8.2420E-3
7.0360E+2	6.8127E-3
7.0382E+2	7.2882E-3
7.0404E+2	7.5915E-3
7.0426E+2	8.3071E-3
7.0448E+2	8.1396E-3
7.0470E+2	6.4068E-3
7.0492E+2	6.3592E-3
7.0515E+2	7.7358E-3
7.0537E+2	8.8790E-3
7.0559E+2	8.1466E-3
7.0581E+2	9.9116E-3
7.0603E+2	8.1790E-3
7.0625E+2	1.0559E-2
7.0647E+2	1.1999E-2
7.0669E+2	7.2934E-3
7.0691E+2	1.0905E-2
7.0713E+2	1.3384E-2
7.0735E+2	7.2321E-3
7.0757E+2	1.1061E-2
7.0779E+2	6.7494E-3
7.0801E+2	1.0569E-2
7.0823E+2	7.4582E-3
7.0845E+2	9.1885E-3
7.0867E+2	1.3802E-2
7.0889E+2	1.1243E-2
7.0911E+2	1.3744E-2
7.0933E+2	9.3767E-3
7.0955E+2	1.1382E-2
7.0977E+2	1.3796E-2
7.0999E+2	1.1677E-2
7.1021E+2	8.0615E-3
7.1043E+2	1.1694E-2
7.1065E+2	1.4026E-2
7.1087E+2	1.1972E-2
7.1109E+2	1.3005E-2
7.1131E+2	1.3443E-2
7.1153E+2	1.2106E-2
7.1175E+2	1.1016E-2
7.1197E+2	1.2335E-2
7.1219E+2	1.5905E-2
7.1241E+2	1.2752E-2
7.1263E+2	1.2923E-2
7.1285E+2	1.2056E-2
7.1307E+2	1.5392E-2
7.1329E+2	1.8837E-2
7.1351E+2	1.6464E-2
7.1373E+2	1.3103E-2
7.1395E+2	1.6474E-2
7.1417E+2	1.8161E-2
7.1439E+2	1.8144E-2
7.1461E+2	1.3584E-2
7.1483E+2	1.9407E-2
7.1505E+2	2.2347E-2
7.1527E+2	1.9630E-2
7.1549E+2	1.7707E-2
7.1571E+2	1.9643E-2
7.1593E+2	1.7812E-2
7.1615E+2	2.0241E-2
7.1637E+2	2.4954E-2
7.1659E+2	2.1740E-2
7.1681E+2	2.0538E-2
7.1703E+2	2.2537E-2
7.1725E+2	1.9714E-2
7.1747E+2	1.7255E-2
7.1769E+2	2.1793E-2
7.1791E+2	2.2946E-2
7.1813E+2	2.2269E-2
7.1835E+2	2.3872E-2
7.1857E+2	2.3831E-2
7.1879E+2	2.6436E-2
7.1901E+2	2.2249E-2
7.1923E+2	2.2634E-2
7.1944E+2	2.6409E-2
7.1966E+2	2.7123E-2
7.1988E+2	2.5942E-2
7.2010E+2	2.4473E-2
7.2032E+2	2.6622E-2
7.2054E+2	2.6208E-2
7.2076E+2	2.5043E-2
7.2098E+2	2.8271E-2
7.2120E+2	2.9600E-2
7.2142E+2	2.6258E-2
7.2164E+2	2.7485E-2
7.2186E+2	3.0501E-2
7.2208E+2	2.9889E-2
7.2230E+2	2.8234E-2
7.2252E+2	3.2935E-2
7.2273E+2	3.0384E-2
7.2295E+2	3.0500E-2
7.2317E+2	3.4536E-2
7.2339E+2	3.0448E-2
7.2361E+2	3.3009E-2
7.2383E+2	3.3045E-2
7.2405E+2	3.2336E-2
7.2427E+2	3.5122E-2
7.2449E+2	3.2682E-2
7.2471E+2	3.4993E-2
7.2493E+2	3.3209E-2
7.2514E+2	3.3995E-2
7.2536E+2	3.4467E-2
7.2558E+2	3.8271E-2
7.2580E+2	3.8864E-2
7.2602E+2	3.9158E-2
7.2624E+2	4.1622E-2
7.2646E+2	3.7917E-2
7.2668E+2	3.7944E-2
7.2690E+2	3.9984E-2
7.2711E+2	4.2914E-2
7.2733E+2	4.1413E-2
7.2755E+2	4.0306E-2
7.2777E+2	4.3357E-2
7.2799E+2	4.3433E-2
7.2821E+2	4.2022E-2
7.2843E+2	4.5682E-2
7.2865E+2	4.7856E-2
7.2886E+2	4.3059E-2
7.2908E+2	4.7080E-2
7.2930E+2	5.0463E-2
7.2952E+2	4.7952E-2
7.2974E+2	4.2488E-2
7.2996E+2	5.1225E-2
7.3018E+2	4.6403E-2
7.3039E+2	5.1968E-2
7.3061E+2	5.0014E-2
7.3083E+2	5.2696E-2
7.3105E+2	4.7325E-2
7.3127E+2	4.9891E-2
7.3149E+2	5.2302E-2
7.3171E+2	5.3800E-2
7.3192E+2	5.3874E-2
7.3214E+2	5.0464E-2
7.3236E+2	5.2877E-2
7.3258E+2	5.9675E-2
7.3280E+2	5.6754E-2
7.3302E+2	5.7441E-2
7.3323E+2	6.3282E-2
7.3345E+2	6.0565E-2
7.3367E+2	6.2374E-2
7.3389E+2	6.3295E-2
7.3411E+2	6.2530E-2
7.3433E+2	6.6309E-2
7.3454E+2	6.1729E-2
7.3476E+2	6.3662E-2
7.3498E+2	6.0834E-2
7.3520E+2	6.5832E-2
7.3542E+2	6.3359E-2
7.3564E+2	7.0061E-2
7.3585E+2	6.6357E-2
7.3607E+2	6.8339E-2
7.3629E+2	6.6294E-2
7.3651E+2	7.3553E-2
7.3673E+2	7.1137E-2
7.3694E+2	7.6365E-2
7.3716E+2	7.1255E-2
7.3738E+2	7.3078E-2
7.3760E+2	7.3298E-2
7.3782E+2	7.6020E-2
7.3803E+2	7.9064E-2
7.3825E+2	8.4001E-2
7.3847E+2	8.0756E-2
7.3869E+2	7.9840E-2
7.3891E+2	8.1775E-2
7.3912E+2	8.2236E-2
7.3934E+2	8.0600E-2
7.3956E+2	8.1278E-2
7.3978E+2	8.6353E-2
7.4000E+2	8.1163E-2
7.4021E+2	8.5754E-2
7.4043E+2	8.2979E-2
7.4065E+2	8.7971E-2
7.4087E+2	8.3263E-2
7.4108E+2	9.1812E-2
7.4130E+2	8.5900E-2
7.4152E+2	8.9126E-2
7.4174E+2	9.3486E-2
7.4196E+2	9.5178E-2
7.4217E+2	9.8134E-2
7.4239E+2	9.6450E-2
7.4261E+2	9.3762E-2
7.4283E+2	9.6980E-2
7.4304E+2	1.0392E-1
7.4326E+2	9.3849E-2
7.4348E+2	1.0071E-1
7.4370E+2	9.9787E-2
7.4391E+2	1.0242E-1
7.4413E+2	1.0235E-1
7.4435E+2	1.0369E-1
7.4457E+2	1.0172E-1
7.4478E+2	1.0400E-1
7.4500E+2	1.0582E-1
7.4522E+2	1.0575E-1
7.4544E+2	1.0566E-1
7.4565E+2	1.0588E-1
7.4587E+2	1.1214E-1
7.4609E+2	1.1186E-1
7.4631E+2	1.1186E-1
7.4652E+2	1.0956E-1
7.4674E+2	1.1360E-1
7.4696E+2	1.1468E-1
7.4717E+2	1.1757E-1
7.4739E+2	1.2212E-1
7.4761E+2	1.1967E-1
7.4783E+2	1.1933E-1
7.4804E+2	1.2048E-1
7.4826E+2	1.2077E-1
7.4848E+2	1.2924E-1
7.4869E+2	1.2700E-1
7.4891E+2	1.2579E-1
7.4913E+2	1.2874E-1
7.4935E+2	1.2192E-1
7.4956E+2	1.2692E-1
7.4978E+2	1.2938E-1
7.5000E+2	1.2735E-1
7.5021E+2	1.2826E-1
7.5043E+2	1.2991E-1
7.5065E+2	1.3292E-1
7.5087E+2	1.3352E-1
7.5108E+2	1.3477E-1
7.5130E+2	1.3600E-1
7.5152E+2	1.3458E-1
7.5173E+2	1.3782E-1
7.5195E+2	1.3531E-1
7.5217E+2	1.4237E-1
7.5238E+2	1.4094E-1
7.5260E+2	1.4353E-1
7.5282E+2	1.3645E-1
7.5303E+2	1.4235E-1
7.5325E+2	1.4623E-1
7.5347E+2	1.4598E-1
7.5368E+2	1.4709E-1
7.5390E+2	1.4535E-1
7.5412E+2	1.5037E-1
7.5433E+2	1.4947E-1
7.5455E+2	1.5243E-1
7.5477E+2	1.4843E-1
7.5498E+2	1.5145E-1
7.5520E+2	1.5042E-1
7.5542E+2	1.5156E-1
7.5563E+2	1.4743E-1
7.5585E+2	1.5142E-1
7.5607E+2	1.5691E-1
7.5628E+2	1.5165E-1
7.5650E+2	1.5979E-1
7.5672E+2	1.5841E-1
7.5693E+2	1.5722E-1
7.5715E+2	1.5543E-1
7.5737E+2	1.5563E-1
7.5758E+2	1.6315E-1
7.5780E+2	1.6355E-1
7.5802E+2	1.6284E-1
7.5823E+2	1.6623E-1
7.5845E+2	1.6619E-1
7.5866E+2	1.6495E-1
7.5888E+2	1.6872E-1
7.5910E+2	1.6836E-1
7.5931E+2	1.6981E-1
7.5953E+2	1.6838E-1
7.5975E+2	1.6366E-1
7.5996E+2	1.7008E-1
7.6018E+2	1.6687E-1
7.6040E+2	1.7244E-1
7.6061E+2	1.7010E-1
7.6083E+2	1.7148E-1
7.6104E+2	1.6772E-1
7.6126E+2	1.6972E-1
7.6148E+2	1.7071E-1
7.6169E+2	1.7098E-1
7.6191E+2	1.6901E-1
7.6212E+2	1.7263E-1
7.6234E+2	1.7212E-1
7.6256E+2	1.7271E-1
7.6277E+2	1.7152E-1
7.6299E+2	1.7290E-1
7.6320E+2	1.7832E-1
7.6342E+2	1.7974E-1
7.6364E+2	1.7542E-1
7.6385E+2	1.7934E-1
7.6407E+2	1.7472E-1
7.6428E+2	1.8199E-1
7.6450E+2	1.8217E-1
7.6472E+2	1.7698E-1
7.6493E+2	1.8590E-1
7.6515E+2	1.8160E-1
7.6536E+2	1.7778E-1
7.6558E+2	1.8170E-1
7.6579E+2	1.7996E-1
7.6601E+2	1.8247E-1
7.6623E+2	1.7552E-1
7.6644E+2	1.7751E-1
7.6666E+2	1.8180E-1
7.6687E+2	1.8145E-1
7.6709E+2	1.8337E-1
7.6730E+2	1.7509E-1
7.6752E+2	1.7628E-1
7.6774E+2	1.8521E-1
7.6795E+2	1.7598E-1
7.6817E+2	1.7980E-1
7.6838E+2	1.8203E-1
7.6860E+2	1.8061E-1
7.6881E+2	1.8308E-1
7.6903E+2	1.8658E-1
7.6925E+2	1.8471E-1
7.6946E+2	1.8357E-1
7.6968E+2	1.8780E-1
7.6989E+2	1.8991E-1
7.7011E+2	1.8466E-1
7.7032E+2	1.9065E-1
7.7054E+2	1.8923E-1
7.7075E+2	1.8865E-1
7.7097E+2	1.7841E-1
7.7118E+2	1.8548E-1
7.7140E+2	1.8147E-1
7.7161E+2	1.8345E-1
7.7183E+2	1.8324E-1
7.7205E+2	1.7889E-1
7.7226E+2	1.7970E-1
7.7248E+2	1.8315E-1
7.7269E+2	1.8170E-1
7.7291E+2	1.7601E-1
7.7312E+2	1.7616E-1
7.7334E+2	1.7984E-1
7.7355E+2	1.7715E-1
7.7377E+2	1.7954E-1
7.7398E+2	1.8005E-1
7.7420E+2	1.8096E-1
7.7441E+2	1.8091E-1
7.7463E+2	1.8328E-1
7.7484E+2	1.7910E-1
7.7506E+2	1.8109E-1
7.7527E+2	1.7936E-1
7.7549E+2	1.8259E-1
7.7570E+2	1.8057E-1
7.7592E+2	1.7940E-1
7.7613E+2	1.8014E-1
7.7635E+2	1.8211E-1
7.7656E+2	1.7676E-1
7.7678E+2	1.7606E-1
7.7699E+2	1.7566E-1
7.7721E+2	1.7579E-1
7.7742E+2	1.7365E-1
7.7764E+2	1.7364E-1
7.7785E+2	1.7190E-1
7.7807E+2	1.7075E-1
7.7828E+2	1.7188E-1
7.7850E+2	1.6687E-1
7.7871E+2	1.6673E-1
7.7893E+2	1.7011E-1
7.7914E+2	1.6179E-1
7.7936E+2	1.6386E-1
7.7957E+2	1.6696E-1
7.7978E+2	1.5972E-1
7.8000E+2	1.6364E-1
7.8021E+2	1.6083E-1
7.8043E+2	1.6335E-1
7.8064E+2	1.6250E-1
7.8086E+2	1.6224E-1
7.8107E+2	1.6104E-1
7.8129E+2	1.6527E-1
7.8150E+2	1.6362E-1
7.8172E+2	1.5825E-1
7.8193E+2	1.5919E-1
7.8214E+2	1.5685E-1
7.8236E+2	1.5933E-1
7.8257E+2	1.5842E-1
7.8279E+2	1.5266E-1
7.8300E+2	1.5411E-1
7.8322E+2	1.5290E-1
7.8343E+2	1.4860E-1
7.8365E+2	1.5003E-1
7.8386E+2	1.4399E-1
7.8407E+2	1.4411E-1
7.8429E+2	1.4566E-1
7.8450E+2	1.4390E-1
7.8472E+2	1.3915E-1
7.8493E+2	1.4694E-1
7.8515E+2	1.4130E-1
7.8536E+2	1.4453E-1
7.8557E+2	1.3958E-1
7.8579E+2	1.3850E-1
7.8600E+2	1.3812E-1
7.8622E+2	1.3646E-1
7.8643E+2	1.4002E-1
7.8665E+2	1.3842E-1
7.8686E+2	1.3839E-1
7.8707E+2	1.3247E-1
7.8729E+2	1.3750E-1
7.8750E+2	1.3527E-1
7.8772E+2	1.3044E-1
7.8793E+2	1.2989E-1
7.8814E+2	1.2934E-1
7.8836E+2	1.2829E-1
7.8857E+2	1.2682E-1
7.8879E+2	1.2676E-1
7.8900E+2	1.2479E-1
7.8921E+2	1.2560E-1
7.8943E+2	1.2272E-1
7.8964E+2	1.2198E-1
7.8985E+2	1.2084E-1
7.9007E+2	1.2191E-1
7.9028E+2	1.1896E-1
7.9050E+2	1.1785E-1
7.9071E+2	1.1443E-1
7.9092E+2	1.1549E-1
7.9114E+2	1.1354E-1
7.9135E+2	1.1092E-1
7.9157E+2	1.1122E-1
7.9178E+2	1.1280E-1
7.9199E+2	1.1141E-1
7.9221E+2	1.0930E-1
7.9242E+2	1.1181E-1
7.9263E+2	1.1178E-1
7.9285E+2	1.1154E-1
7.9306E+2	1.1302E-1
7.9327E+2	1.0420E-1
7.9349E+2	1.0726E-1
7.9370E+2	1.0462E-1
7.9392E+2	9.9684E-2
7.9413E+2	1.0066E-1
7.9434E+2	1.0054E-1
7.9456E+2	1.0053E-1
7.9477E+2	9.4842E-2
7.9498E+2	9.5547E-2
7.9520E+2	9.8338E-2
7.9541E+2	9.2093E-2
7.9562E+2	9.1656E-2
7.9584E+2	9.3208E-2
7.9605E+2	8.9574E-2
7.9626E+2	8.9326E-2
7.9648E+2	8.9744E-2
7.9669E+2	8.8732E-2
7.9690E+2	8.7843E-2
7.9712E+2	8.4653E-2
7.9733E+2	8.4991E-2
7.9754E+2	8.3062E-2
7.9776E+2	8.2716E-2
7.9797E+2	8.2742E-2
7.9818E+2	7.7356E-2
7.9840E+2	8.4760E-2
7.9861E+2	7.7041E-2
7.9882E+2	8.0669E-2
7.9904E+2	8.0836E-2
7.9925E+2	7.6153E-2
7.9946E+2	7.6021E-2
7.9967E+2	7.4901E-2
7.9989E+2	7.4079E-2
8.0010E+2	7.4389E-2
8.0031E+2	7.2795E-2
8.0053E+2	7.1627E-2
8.0074E+2	7.0168E-2
8.0095E+2	6.8242E-2
8.0117E+2	7.0244E-2
8.0138E+2	6.8829E-2
8.0159E+2	6.9153E-2
8.0180E+2	6.7284E-2
8.0202E+2	6.4529E-2
8.0223E+2	6.3898E-2
8.0244E+2	6.4138E-2
8.0266E+2	6.1604E-2
8.0287E+2	6.0490E-2
8.0308E+2	6.1068E-2
8.0329E+2	6.2370E-2
8.0351E+2	5.7604E-2
8.0372E+2	5.8458E-2
8.0393E+2	5.6615E-2
8.0415E+2	5.5584E-2
8.0436E+2	5.6948E-2
8.0457E+2	5.5413E-2
8.0478E+2	5.3010E-2
8.0500E+2	5.3901E-2
8.0521E+2	5.6547E-2
8.0542E+2	5.3387E-2
8.0563E+2	5.2108E-2
8.0585E+2	5.2707E-2
8.0606E+2	4.9742E-2
8.0627E+2	4.6801E-2
8.0648E+2	5.0541E-2
8.0670E+2	4.8508E-2
8.0691E+2	4.8750E-2
8.0712E+2	4.8103E-2
8.0733E+2	4.4225E-2
8.0755E+2	4.3822E-2
8.0776E+2	4.3013E-2
8.0797E+2	4.5970E-2
8.0818E+2	4.2068E-2
8.0840E+2	4.0413E-2
8.0861E+2	4.3388E-2
8.0882E+2	4.1716E-2
8.0903E+2	3.9696E-2
8.0925E+2	4.1353E-2
8.0946E+2	3.7399E-2
8.0967E+2	3.9689E-2
8.0988E+2	3.8449E-2
8.1009E+2	3.9216E-2
8.1031E+2	3.4665E-2
8.1052E+2	3.6779E-2
8.1073E+2	3.4185E-2
8.1094E+2	3.4378E-2
8.1116E+2	3.7112E-2
8.1137E+2	3.6067E-2
8.1158E+2	3.4524E-2
8.1179E+2	3.4705E-2
8.1200E+2	3.4399E-2
8.1222E+2	3.4111E-2
8.1243E+2	3.2759E-2
8.1264E+2	3.2917E-2
8.1285E+2	2.8528E-2
8.1306E+2	2.8463E-2
8.1328E+2	2.9876E-2
8.1349E+2	3.0618E-2
8.1370E+2	2.8320E-2
8.1391E+2	2.7298E-2
8.1412E+2	3.0022E-2
8.1434E+2	3.0242E-2
8.1455E+2	2.7774E-2
8.1476E+2	2.9889E-2
8.1497E+2	2.7997E-2
8.1518E+2	2.5028E-2
8.1540E+2	2.5872E-2
8.1561E+2	2.3328E-2
8.1582E+2	2.1795E-2
8.1603E+2	2.4914E-2
8.1624E+2	2.6185E-2
8.1645E+2	2.2242E-2
8.1667E+2	2.6078E-2
8.1688E+2	2.5211E-2
8.1709E+2	2.4391E-2
8.1730E+2	1.9338E-2
8.1751E+2	2.2893E-2
8.1772E+2	2.3398E-2
8.1794E+2	2.2678E-2
8.1815E+2	2.2930E-2
8.1836E+2	2.0351E-2
8.1857E+2	2.1634E-2
8.1878E+2	2.0749E-2
8.1899E+2	2.1050E-2
8.1921E+2	1.9057E-2
8.1942E+2	1.9844E-2
8.1963E+2	1.8219E-2
8.1984E+2	1.9143E-2
8.2005E+2	1.9785E-2
8.2026E+2	1.9348E-2
8.2047E+2	1.9961E-2
8.2069E+2	1.7128E-2
8.2090E+2	1.6565E-2
8.2111E+2	1.8340E-2
8.2132E+2	1.8671E-2
8.2153E+2	1.6744E-2
8.2174E+2	1.8284E-2
8.2195E+2	1.7728E-2
8.2216E+2	1.6479E-2
8.2238E+2	1.6056E-2
8.2259E+2	1.5287E-2
8.2280E+2	1.3462E-2
8.2301E+2	1.5374E-2
8.2322E+2	1.8687E-2
8.2343E+2	2.0388E-2
8.2364E+2	1.8593E-2
8.2385E+2	1.9688E-2
8.2407E+2	1.9006E-2
8.2428E+2	1.5224E-2
8.2449E+2	1.4702E-2
8.2470E+2	1.3600E-2
8.2491E+2	1.1363E-2
8.2512E+2	1.2867E-2
8.2533E+2	1.3914E-2
8.2554E+2	1.1839E-2
8.2575E+2	1.1521E-2
8.2596E+2	1.4353E-2
8.2618E+2	1.2299E-2
8.2639E+2	1.1385E-2
8.2660E+2	1.1822E-2
8.2681E+2	1.0343E-2
8.2702E+2	1.1483E-2
8.2723E+2	1.2297E-2
8.2744E+2	7.8158E-3
8.2765E+2	1.0456E-2
8.2786E+2	1.1119E-2
8.2807E+2	9.5084E-3
8.2828E+2	9.7458E-3
8.2849E+2	1.0107E-2
8.2871E+2	9.1799E-3
8.2892E+2	8.3539E-3
8.2913E+2	1.0788E-2
8.2934E+2	8.5882E-3
8.2955E+2	9.7762E-3
8.2976E+2	1.0459E-2
8.2997E+2	8.3334E-3
8.3018E+2	5.6456E-3
8.3039E+2	7.6888E-3
8.3060E+2	9.6192E-3
8.3081E+2	5.6687E-3
8.3102E+2	7.3819E-3
8.3123E+2	1.0054E-2
8.3144E+2	9.9740E-3
8.3165E+2	6.3566E-3
8.3186E+2	9.6233E-3
8.3208E+2	6.1136E-3
8.3229E+2	6.4445E-3
8.3250E+2	6.9972E-3
8.3271E+2	7.9932E-3
8.3292E+2	6.0294E-3
8.3313E+2	7.8770E-3
8.3334E+2	6.5212E-3
8.3355E+2	6.4316E-3
8.3376E+2	8.7496E-3
8.3397E+2	6.5797E-3
8.3418E+2	5.0572E-3
8.3439E+2	6.5874E-3
8.3460E+2	6.1661E-3
8.3481E+2	7.2352E-3
8.3502E+2	6.4009E-3
8.3523E+2	5.1541E-3
8.3544E+2	5.1002E-3
8.3565E+2	5.7905E-3
8.3586E+2	4.2083E-3
8.3607E+2	8.1123E-3
8.3628E+2	5.7397E-3
8.3649E+2	6.9751E-3
8.3670E+2	5.0223E-3
8.3691E+2	7.3078E-3
8.3712E+2	6.1568E-3
8.3733E+2	4.7512E-3
8.3754E+2	5.9678E-3
8.3775E+2	5.5603E-3
8.3796E+2	6.7419E-3
8.3817E+2	7.2620E-3
8.3838E+2	3.0651E-3
8.3859E+2	4.8021E-3
8.3880E+2	5.1599E-3
8.3901E+2	3.3927E-3
8.3922E+2	7.6288E-3
8.3943E+2	5.4916E-3
8.3964E+2	4.7035E-3
8.3985E+2	4.4189E-3
8.4006E+2	4.4934E-3
8.4027E+2	6.2964E-3
8.4048E+2	3.8845E-3
8.4069E+2	3.5484E-3
8.4090E+2	6.4133E-3
8.4111E+2	3.9858E-3
8.4132E+2	4.7934E-3
8.4153E+2	5.3062E-3
8.4174E+2	4.6181E-3
8.4195E+2	4.1785E-3
8.4216E+2	4.5008E-3
8.4237E+2	2.5501E-3
8.4258E+2	3.7725E-3
8.4279E+2	2.9240E-3
8.4300E+2	3.6038E-3
8.4321E+2	4.4044E-3
8.4342E+2	8.9338E-4
8.4362E+2	3.4057E-3
8.4383E+2	2.8347E-3
8.4404E+2	4.4932E-3
8.4425E+2	3.8704E-3
8.4446E+2	4.1175E-3
8.4467E+2	3.5987E-3
8.4488E+2	5.2675E-3
8.4509E+2	2.4290E-3
8.4530E+2	3.8443E-3
8.4551E+2	3.9530E-3
8.4572E+2	3.0031E-3
8.4593E+2	3.8021E-3
8.4614E+2	2.4558E-3
8.4635E+2	2.1506E-3
8.4656E+2	4.1741E-3
8.4677E+2	3.3689E-3
8.4697E+2	3.2937E-3
8.4718E+2	2.8564E-3
8.4739E+2	2.5055E-3
8.4760E+2	3.3843E-3
8.4781E+2	3.3149E-3
8.4802E+2	1.5912E-3
8.4823E+2	3.6069E-3
8.4844E+2	2.9231E-3
8.4865E+2	3.0606E-3
8.4886E+2	1.2976E-3
8.4907E+2	2.0840E-3
8.4928E+2	4.1389E-3
8.4948E+2	3.0364E-3
8.4969E+2	2.8409E-3
8.4990E+2	1.0043E-3
8.5011E+2	2.9379E-3
8.5032E+2	4.3433E-3
8.5053E+2	1.9104E-3
8.5074E+2	2.0192E-3
8.5095E+2	2.2944E-3
8.5116E+2	1.5945E-3
8.5137E+2	2.7930E-3
8.5157E+2	3.1197E-3
8.5178E+2	2.7009E-3
8.5199E+2	2.9300E-3
8.5220E+2	2.0870E-3
8.5241E+2	3.0844E-3
8.5262E+2	2.5109E-3
8.5283E+2	3.3936E-3
8.5304E+2	3.9551E-4
8.5324E+2	3.4677E-3
8.5345E+2	2.8256E-3
8.5366E+2	1.7423E-3
8.5387E+2	3.5819E-3
8.5408E+2	2.9914E-3
8.5429E+2	2.5214E-3
8.5450E+2	2.2692E-3
8.5471E+2	4.2746E-3
8.5491E+2	2.6014E-3
8.5512E+2	3.5983E-3
8.5533E+2	2.2861E-3
8.5554E+2	2.9851E-3
8.5575E+2	1.7245E-3
8.5596E+2	2.0224E-3
8.5617E+2	3.0193E-3
8.5637E+2	2.4177E-3
8.5658E+2	2.6698E-3
8.5679E+2	2.1255E-3
8.5700E+2	2.6869E-3
8.5721E+2	2.6010E-3
8.5742E+2	1.2203E-3
8.5762E+2	1.3406E-3
8.5783E+2	3.3745E-3
8.5804E+2	2.5209E-3
8.5825E+2	8.6514E-4
8.5846E+2	2.2116E-3
8.5867E+2	2.4752E-3
8.5887E+2	3.7243E-4
8.5908E+2	-1.4898E-4
8.5929E+2	1.3294E-3
8.5950E+2	2.2291E-3
8.5971E+2	2.2979E-3
8.5992E+2	1.2034E-3
8.6012E+2	1.0774E-3
8.6033E+2	2.0690E-3
8.6054E+2	1.7022E-3
8.6075E+2	1.6622E-4
8.6096E+2	8.5408E-4
8.6116E+2	2.7343E-3
8.6137E+2	-1.3758E-4
8.6158E+2	4.4717E-4
8.6179E+2	1.7716E-3
8.6200E+2	1.4334E-3
8.6220E+2	2.3051E-3
8.6241E+2	1.3763E-3
8.6262E+2	5.3336E-4
8.6283E+2	1.0381E-3
8.6304E+2	2.3059E-3
8.6324E+2	5.5644E-4
8.6345E+2	6.0239E-4
8.6366E+2	2.4097E-4
8.6387E+2	4.5903E-4
8.6408E+2	2.1806E-3
8.6428E+2	1.2052E-3
8.6449E+2	8.6094E-5
8.6470E+2	3.8460E-4
8.6491E+2	2.5375E-3
8.6511E+2	1.3952E-3
8.6532E+2	1.2748E-3
8.6553E+2	1.2520E-3
8.6574E+2	1.3785E-4
8.6595E+2	2.1311E-3
8.6615E+2	1.4190E-3
8.6636E+2	-5.7456E-4
8.6657E+2	1.8445E-3
8.6678E+2	-2.8160E-4
8.6698E+2	8.3918E-4
8.6719E+2	1.9890E-3
8.6740E+2	1.4316E-3
8.6761E+2	1.1788E-3
8.6781E+2	2.2372E-3
