PE UV       SUBTECH     SPECTRUM    ASCII       PEDS        4.00        
   -1
10_TR.Sample.asc
23/03/22
10:39:55.00
23/03/22
10:39:55.00
Analyst

300.000000
1
Lambda 950
950L1311181
PerkinElmer UV WinLab 6.0.4.0738 / 1.61.00 Lambda 900

0
0
3350/servo 860.8/5
0
0
UV/VIS
1
1
1
RBeamAtt,SBeamAtt,150mm sphere / downward view, WB InGaAs Detector
0
0
0
0
Program
Program
3350/servo 860.8/5
3350/0.2 860.8/0.2
3350/0.2 860.8/0.2
0
9.50
 
 
 
0
 
860.8
319.2
860.8
Front
100
 
S:100 R:100
 
0
0
0
 
0
 
 
 
0
 
 
0
0
0
0
0
 
 
 
 
0
0


0
0
#HDR
-1
-1
#GR
nm
%R
1.0
0.0
1200.000000
-10.000000
91
8
40.361917
8.602432
#DATA
1200.000000	40.361917
1190.000000	38.996673
1180.000000	37.429649
1170.000000	35.692336
1160.000000	33.738505
1150.000000	31.611329
1140.000000	29.354863
1130.000000	26.955307
1120.000000	24.474807
1110.000000	21.994020
1100.000000	19.503136
1090.000000	17.108626
1080.000000	14.858703
1070.000000	12.866841
1060.000000	11.193307
1050.000000	9.890420
1040.000000	9.019297
1030.000000	8.602432
1020.000000	8.631213
1010.000000	9.103950
1000.000000	9.942668
990.000000	11.120305
980.000000	12.537319
970.000000	14.154196
960.000000	15.883397
950.000000	17.613356
940.000000	19.340826
930.000000	20.931229
920.000000	22.402529
910.000000	23.640418
900.000000	24.653735
890.000000	25.374339
880.000000	25.791431
870.000000	25.896838
860.000000	25.582266
850.000000	25.225640
840.000000	24.489636
830.000000	23.381734
820.000000	21.905602
810.000000	20.279109
800.000000	18.260234
790.000000	16.039887
780.000000	13.939486
770.000000	12.422511
760.000000	11.681074
750.000000	11.419257
740.000000	11.350306
730.000000	11.370617
720.000000	11.507372
710.000000	11.710060
700.000000	11.985021
690.000000	12.299410
680.000000	12.623363
670.000000	12.838754
660.000000	12.999753
650.000000	13.039237
640.000000	12.968131
630.000000	12.786559
620.000000	12.565572
610.000000	12.400209
600.000000	12.284292
590.000000	12.312219
580.000000	12.461275
570.000000	12.599398
560.000000	12.742187
550.000000	12.863474
540.000000	12.989408
530.000000	13.117246
520.000000	13.242234
510.000000	13.376495
500.000000	13.370856
490.000000	13.115725
480.000000	12.837028
470.000000	12.627961
460.000000	12.541120
450.000000	12.520264
440.000000	12.654406
430.000000	12.892206
420.000000	13.179618
410.000000	13.538958
400.000000	13.822797
390.000000	14.009473
380.000000	14.098448
370.000000	13.968287
360.000000	13.643445
350.000000	13.102033
340.000000	12.455879
330.000000	11.765002
320.000000	11.255345
310.000000	11.054268
300.000000	13.689563
