PE UV       SUBTECH     SPECTRUM    ASCII       PEDS        4.00        
   -1
11_TR.Sample.asc
23/03/22
10:42:49.00
23/03/22
10:42:49.00
Analyst

300.000000
1
Lambda 950
950L1311181
PerkinElmer UV WinLab 6.0.4.0738 / 1.61.00 Lambda 900

0
0
3350/servo 860.8/5
0
0
UV/VIS
1
1
1
RBeamAtt,SBeamAtt,150mm sphere / downward view, WB InGaAs Detector
0
0
0
0
Program
Program
3350/servo 860.8/5
3350/0.2 860.8/0.2
3350/0.2 860.8/0.2
0
9.50
 
 
 
0
 
860.8
319.2
860.8
Front
100
 
S:100 R:100
 
0
0
0
 
0
 
 
 
0
 
 
0
0
0
0
0
 
 
 
 
0
0


0
0
#HDR
-1
-1
#GR
nm
%R
1.0
0.0
1200.000000
-10.000000
91
8
42.794230
8.711334
#DATA
1200.000000	42.794230
1190.000000	41.613033
1180.000000	40.204334
1170.000000	38.660904
1160.000000	36.872036
1150.000000	34.882264
1140.000000	32.747726
1130.000000	30.426806
1120.000000	27.981328
1110.000000	25.456674
1100.000000	22.891989
1090.000000	20.331166
1080.000000	17.833937
1070.000000	15.491063
1060.000000	13.423382
1050.000000	11.642653
1040.000000	10.249804
1030.000000	9.275715
1020.000000	8.754299
1010.000000	8.711334
1000.000000	9.090180
990.000000	9.871671
980.000000	10.975681
970.000000	12.370067
960.000000	13.968891
950.000000	15.672896
940.000000	17.432972
930.000000	19.164089
920.000000	20.836569
910.000000	22.348455
900.000000	23.669312
890.000000	24.750675
880.000000	25.540216
870.000000	26.017505
860.000000	26.119350
850.000000	25.903186
840.000000	25.469304
830.000000	24.791988
820.000000	23.733654
810.000000	22.289743
800.000000	20.505058
790.000000	18.292283
780.000000	15.974286
770.000000	14.011348
760.000000	12.792960
750.000000	12.134210
740.000000	11.795661
730.000000	11.678302
720.000000	11.712593
710.000000	11.844107
700.000000	12.110653
690.000000	12.442601
680.000000	12.826810
670.000000	13.190151
660.000000	13.499850
650.000000	13.716186
640.000000	13.825219
630.000000	13.810359
620.000000	13.652018
610.000000	13.460531
600.000000	13.307816
590.000000	13.251635
580.000000	13.275834
570.000000	13.380786
560.000000	13.544986
550.000000	13.695606
540.000000	13.867864
530.000000	14.011723
520.000000	14.145373
510.000000	14.246299
500.000000	14.258804
490.000000	13.992503
480.000000	13.670876
470.000000	13.419475
460.000000	13.300549
450.000000	13.348469
440.000000	13.503545
430.000000	13.744355
420.000000	14.010190
410.000000	14.362294
400.000000	14.562330
390.000000	14.696565
380.000000	14.710137
370.000000	14.538854
360.000000	14.150584
350.000000	13.541569
340.000000	12.830202
330.000000	12.187925
320.000000	11.679071
310.000000	11.433480
300.000000	10.395465
