PE UV       SUBTECH     SPECTRUM    ASCII       PEDS        4.00        
   -1
12_TT.Sample.asc
23/03/22
10:08:11.00
23/03/22
10:08:11.00
Analyst

300.000000
1
Lambda 950
950L1311181
PerkinElmer UV WinLab 6.0.4.0738 / 1.61.00 Lambda 900

0
0
3350/servo 860.8/5
0
0
UV/VIS
1
1
1
RBeamAtt,SBeamAtt,150mm sphere / downward view, WB InGaAs Detector
0
0
0
0
Program
Program
3350/servo 860.8/5
3350/0.2 860.8/0.2
3350/0.2 860.8/0.2
0
9.50
 
 
 
0
 
860.8
319.2
860.8
Front
100
 
S:100 R:100
 
0
0
0
 
0
 
 
 
0
 
 
0
0
0
0
0
 
 
 
 
0
0


0
0
#HDR
-1
-1
#GR
nm
%R
1.0
0.0
1200.000000
-10.000000
91
8
65.025116
-0.040134
#DATA
1200.000000	46.687874
1190.000000	47.626728
1180.000000	48.586836
1170.000000	49.626039
1160.000000	50.728948
1150.000000	51.858121
1140.000000	53.048158
1130.000000	54.256478
1120.000000	55.489603
1110.000000	56.744314
1100.000000	57.968790
1090.000000	59.160183
1080.000000	60.325804
1070.000000	61.413460
1060.000000	62.362286
1050.000000	63.179055
1040.000000	63.895286
1030.000000	64.425484
1020.000000	64.775019
1010.000000	64.979473
1000.000000	65.025116
990.000000	64.885836
980.000000	64.614853
970.000000	64.202003
960.000000	63.765951
950.000000	63.225582
940.000000	62.752523
930.000000	62.243715
920.000000	61.771568
910.000000	61.335386
900.000000	61.034915
890.000000	60.789568
880.000000	60.576615
870.000000	60.579674
860.000000	60.686597
850.000000	60.459584
840.000000	60.709341
830.000000	61.005409
820.000000	61.251842
810.000000	61.350141
800.000000	60.729144
790.000000	58.398107
780.000000	54.559129
770.000000	49.392638
760.000000	43.279033
750.000000	37.362139
740.000000	32.587947
730.000000	28.989842
720.000000	26.386177
710.000000	24.345406
700.000000	22.649964
690.000000	21.197278
680.000000	19.727118
670.000000	18.365244
660.000000	16.952011
650.000000	15.554562
640.000000	14.220349
630.000000	12.894176
620.000000	11.603997
610.000000	10.346702
600.000000	9.132733
590.000000	7.997231
580.000000	6.942722
570.000000	5.962234
560.000000	5.131151
550.000000	4.468213
540.000000	3.929053
530.000000	3.523688
520.000000	3.236132
510.000000	3.104128
500.000000	3.086528
490.000000	3.012460
480.000000	2.967625
470.000000	2.958153
460.000000	2.930706
450.000000	2.929403
440.000000	2.894342
430.000000	2.875708
420.000000	2.843362
410.000000	2.834628
400.000000	2.822775
390.000000	2.793472
380.000000	2.771313
370.000000	2.769053
360.000000	2.785322
350.000000	2.740703
340.000000	2.625427
330.000000	2.316330
320.000000	1.672850
310.000000	0.786581
300.000000	-0.040134
