PE UV       SUBTECH     SPECTRUM    ASCII       PEDS        4.00        
   -1
12_TR.Sample.asc
23/03/22
10:45:39.00
23/03/22
10:45:39.00
Analyst

300.000000
1
Lambda 950
950L1311181
PerkinElmer UV WinLab 6.0.4.0738 / 1.61.00 Lambda 900

0
0
3350/servo 860.8/5
0
0
UV/VIS
1
1
1
RBeamAtt,SBeamAtt,150mm sphere / downward view, WB InGaAs Detector
0
0
0
0
Program
Program
3350/servo 860.8/5
3350/0.2 860.8/0.2
3350/0.2 860.8/0.2
0
9.50
 
 
 
0
 
860.8
319.2
860.8
Front
100
 
S:100 R:100
 
0
0
0
 
0
 
 
 
0
 
 
0
0
0
0
0
 
 
 
 
0
0


0
0
#HDR
-1
-1
#GR
nm
%R
1.0
0.0
1200.000000
-10.000000
91
8
37.874880
11.322328
#DATA
1200.000000	37.874880
1190.000000	36.919167
1180.000000	35.718365
1170.000000	34.458487
1160.000000	33.043932
1150.000000	31.509209
1140.000000	29.860429
1130.000000	28.108468
1120.000000	26.301718
1110.000000	24.456643
1100.000000	22.578931
1090.000000	20.714459
1080.000000	18.888201
1070.000000	17.168722
1060.000000	15.608755
1050.000000	14.244383
1040.000000	13.123985
1030.000000	12.272045
1020.000000	11.722469
1010.000000	11.501324
1000.000000	11.582449
990.000000	11.955712
980.000000	12.570524
970.000000	13.426614
960.000000	14.483895
950.000000	15.632681
940.000000	16.830739
930.000000	18.061316
920.000000	19.271661
910.000000	20.357150
900.000000	21.343638
890.000000	22.213309
880.000000	22.847835
870.000000	23.332834
860.000000	23.532819
850.000000	23.240054
840.000000	23.082979
830.000000	22.911008
820.000000	22.374169
810.000000	21.582226
800.000000	20.235953
790.000000	18.269004
780.000000	16.006693
770.000000	14.114224
760.000000	12.834395
750.000000	12.103063
740.000000	11.671201
730.000000	11.434171
720.000000	11.334567
710.000000	11.322328
700.000000	11.381850
690.000000	11.534407
680.000000	11.720217
670.000000	11.932728
660.000000	12.126749
650.000000	12.312998
640.000000	12.444046
630.000000	12.481920
620.000000	12.447848
610.000000	12.390792
600.000000	12.312917
590.000000	12.281805
580.000000	12.321873
570.000000	12.396797
560.000000	12.520993
550.000000	12.640600
540.000000	12.766654
530.000000	12.937478
520.000000	13.043038
510.000000	13.165731
500.000000	13.147081
490.000000	12.891026
480.000000	12.582367
470.000000	12.404890
460.000000	12.354839
450.000000	12.416390
440.000000	12.586044
430.000000	12.818858
420.000000	13.100362
410.000000	13.447650
400.000000	13.695653
390.000000	13.886662
380.000000	13.939948
370.000000	13.825151
360.000000	13.507936
350.000000	12.987126
340.000000	12.370278
330.000000	11.771842
320.000000	11.371273
310.000000	11.483688
300.000000	17.533366
