PE UV       SUBTECH     SPECTRUM    ASCII       PEDS        4.00        
   -1
9_TR.Sample.asc
23/03/22
10:37:13.00
23/03/22
10:37:13.00
Analyst

300.000000
1
Lambda 950
950L1311181
PerkinElmer UV WinLab 6.0.4.0738 / 1.61.00 Lambda 900

0
0
3350/servo 860.8/5
0
0
UV/VIS
1
1
1
RBeamAtt,SBeamAtt,150mm sphere / downward view, WB InGaAs Detector
0
0
0
0
Program
Program
3350/servo 860.8/5
3350/0.2 860.8/0.2
3350/0.2 860.8/0.2
0
9.50
 
 
 
0
 
860.8
319.2
860.8
Front
100
 
S:100 R:100
 
0
0
0
 
0
 
 
 
0
 
 
0
0
0
0
0
 
 
 
 
0
0


0
0
#HDR
-1
-1
#GR
nm
%R
1.0
0.0
1200.000000
-10.000000
91
8
43.287127
9.710379
#DATA
1200.000000	43.287127
1190.000000	43.049159
1180.000000	42.674168
1170.000000	42.184318
1160.000000	41.517739
1150.000000	40.733086
1140.000000	39.755936
1130.000000	38.613280
1120.000000	37.302026
1110.000000	35.800856
1100.000000	34.115902
1090.000000	32.241488
1080.000000	30.207316
1070.000000	28.018287
1060.000000	25.751005
1050.000000	23.383235
1040.000000	21.000416
1030.000000	18.675688
1020.000000	16.480547
1010.000000	14.488036
1000.000000	12.754953
990.000000	11.373558
980.000000	10.379536
970.000000	9.829645
960.000000	9.710379
950.000000	10.031815
940.000000	10.731103
930.000000	11.753406
920.000000	13.057001
910.000000	14.541926
900.000000	16.129392
890.000000	17.732515
880.000000	19.346387
870.000000	20.880757
860.000000	22.238634
850.000000	22.564917
840.000000	23.501555
830.000000	24.348598
820.000000	24.866572
810.000000	25.007084
800.000000	24.820522
790.000000	23.892985
780.000000	22.200480
770.000000	19.631444
760.000000	16.824071
750.000000	14.673483
740.000000	13.502321
730.000000	12.974715
720.000000	12.727044
710.000000	12.543679
700.000000	12.503296
690.000000	12.616029
680.000000	12.830774
670.000000	13.110017
660.000000	13.423952
650.000000	13.677310
640.000000	13.883953
630.000000	14.038838
620.000000	14.115421
610.000000	14.124747
600.000000	14.038630
590.000000	13.905617
580.000000	13.795422
570.000000	13.781968
560.000000	13.867382
550.000000	14.071776
540.000000	14.228302
530.000000	14.417446
520.000000	14.545771
510.000000	14.620778
500.000000	14.614576
490.000000	14.584709
480.000000	14.472532
470.000000	14.238796
460.000000	14.075675
450.000000	14.062805
440.000000	14.175273
430.000000	14.454059
420.000000	14.796566
410.000000	15.163392
400.000000	15.485458
390.000000	15.734734
380.000000	15.814485
370.000000	15.749938
360.000000	15.445216
350.000000	14.884016
340.000000	14.168283
330.000000	13.379303
320.000000	12.641492
310.000000	12.094937
300.000000	11.745741
