PE UV       SUBTECH     SPECTRUM    ASCII       PEDS        4.00        
   -1
10_TR.Sample.asc
23/04/12
12:23:10.00
23/04/12
12:23:10.00
Analyst

300.000000
1
Lambda 950
950L1311181
PerkinElmer UV WinLab 6.0.4.0738 / 1.61.00 Lambda 900

0
0
3350/servo 860.8/5
0
0
UV/VIS
1
1
1
RBeamAtt,SBeamAtt,150mm sphere / downward view, WB InGaAs Detector
0
0
0
0
Program
Program
3350/servo 860.8/5
3350/0.2 860.8/0.2
3350/0.2 860.8/0.2
0
9.50
 
 
 
0
 
860.8
319.2
860.8
Front
100
 
S:100 R:100
 
0
0
0
 
0
 
 
 
0
 
 
0
0
0
0
0
 
 
 
 
0
0


0
0
#HDR
-1
-1
#GR
nm
%R
1.0
0.0
1200.000000
-10.000000
91
8
49.755429
7.523761
#DATA
1200.000000	48.637928
1190.000000	49.348129
1180.000000	49.729376
1170.000000	49.755429
1160.000000	49.413826
1150.000000	48.692844
1140.000000	47.554158
1130.000000	45.979394
1120.000000	43.947526
1110.000000	41.509931
1100.000000	38.560354
1090.000000	35.153570
1080.000000	31.360598
1070.000000	27.315984
1060.000000	23.197566
1050.000000	19.194468
1040.000000	15.568098
1030.000000	12.625228
1020.000000	10.605565
1010.000000	9.676337
1000.000000	9.894601
990.000000	11.233532
980.000000	13.486596
970.000000	16.399776
960.000000	19.735757
950.000000	23.141231
940.000000	26.355782
930.000000	29.134046
920.000000	31.350647
910.000000	32.825334
900.000000	33.442229
890.000000	33.189721
880.000000	32.020852
870.000000	29.883541
860.000000	26.999459
850.000000	25.833204
840.000000	22.547142
830.000000	19.176535
820.000000	15.920870
810.000000	13.625519
800.000000	13.130309
790.000000	14.885516
780.000000	17.935124
770.000000	19.983092
760.000000	19.077479
750.000000	17.415455
740.000000	16.597621
730.000000	16.247039
720.000000	16.028483
710.000000	15.747273
700.000000	15.376563
690.000000	14.946328
680.000000	14.518105
670.000000	14.239331
660.000000	14.067721
650.000000	14.069100
640.000000	14.250895
630.000000	14.472166
620.000000	14.629791
610.000000	14.635431
600.000000	14.511730
590.000000	14.346991
580.000000	14.241870
570.000000	14.184582
560.000000	14.097698
550.000000	13.991603
540.000000	13.840233
530.000000	13.636084
520.000000	13.392320
510.000000	13.148435
500.000000	12.926788
490.000000	12.414707
480.000000	11.791138
470.000000	11.280854
460.000000	10.905810
450.000000	10.629131
440.000000	10.568381
430.000000	10.549452
420.000000	10.519242
410.000000	10.381883
400.000000	10.042219
390.000000	9.614943
380.000000	9.122962
370.000000	8.584540
360.000000	8.310145
350.000000	7.921154
340.000000	7.754895
330.000000	7.659247
320.000000	7.523761
310.000000	7.852527
300.000000	7.760023
