PE UV       SUBTECH     SPECTRUM    ASCII       PEDS        4.00        
   -1
1_TR.Sample.asc
23/04/12
11:54:56.00
23/04/12
11:54:56.00
Analyst

300.000000
1
Lambda 950
950L1311181
PerkinElmer UV WinLab 6.0.4.0738 / 1.61.00 Lambda 900

0
0
3350/servo 860.8/5
0
0
UV/VIS
1
1
1
RBeamAtt,SBeamAtt,150mm sphere / downward view, WB InGaAs Detector
0
0
0
0
Program
Program
3350/servo 860.8/5
3350/0.2 860.8/0.2
3350/0.2 860.8/0.2
0
9.50
 
 
 
0
 
860.8
319.2
860.8
Front
100
 
S:100 R:100
 
0
0
0
 
0
 
 
 
0
 
 
0
0
0
0
0
 
 
 
 
0
0


0
0
#HDR
-1
-1
#GR
nm
%R
1.0
0.0
1200.000000
-10.000000
91
8
40.557602
8.069380
#DATA
1200.000000	40.489139
1190.000000	40.557602
1180.000000	40.481065
1170.000000	40.218369
1160.000000	39.754324
1150.000000	39.059217
1140.000000	38.192759
1130.000000	37.118890
1120.000000	35.890470
1110.000000	34.487062
1100.000000	32.930457
1090.000000	31.226484
1080.000000	29.419038
1070.000000	27.566779
1060.000000	25.742355
1050.000000	23.988435
1040.000000	22.396043
1030.000000	21.058496
1020.000000	20.036930
1010.000000	19.400375
1000.000000	19.173440
990.000000	19.318442
980.000000	19.819573
970.000000	20.572471
960.000000	21.543660
950.000000	22.580698
940.000000	23.640571
930.000000	24.557576
920.000000	25.333089
910.000000	25.888161
900.000000	26.155624
890.000000	26.117893
880.000000	25.723571
870.000000	25.047723
860.000000	24.114149
850.000000	23.512407
840.000000	22.494018
830.000000	21.286238
820.000000	20.009795
810.000000	18.818863
800.000000	18.227260
790.000000	18.298293
780.000000	18.441236
770.000000	18.012813
760.000000	17.032452
750.000000	16.209367
740.000000	15.764643
730.000000	15.592303
720.000000	15.436900
710.000000	15.296149
700.000000	15.156376
690.000000	14.994460
680.000000	14.798648
670.000000	14.695336
660.000000	14.592031
650.000000	14.538684
640.000000	14.538376
630.000000	14.606796
620.000000	14.666228
610.000000	14.655920
600.000000	14.622049
590.000000	14.569211
580.000000	14.505778
570.000000	14.435650
560.000000	14.358214
550.000000	14.294738
540.000000	14.171195
530.000000	14.009614
520.000000	13.797141
510.000000	13.564523
500.000000	13.313501
490.000000	12.915619
480.000000	12.463845
470.000000	11.965450
460.000000	11.588873
450.000000	11.419663
440.000000	11.460264
430.000000	11.483345
420.000000	11.482963
410.000000	11.359208
400.000000	11.029751
390.000000	10.609453
380.000000	10.136967
370.000000	9.598940
360.000000	9.332427
350.000000	8.865659
340.000000	8.605369
330.000000	8.362133
320.000000	8.069380
310.000000	8.243613
300.000000	8.180789
