PE UV       SUBTECH     SPECTRUM    ASCII       PEDS        4.00        
   -1
2_TR.Sample.asc
23/04/12
11:57:32.00
23/04/12
11:57:32.00
Analyst

300.000000
1
Lambda 950
950L1311181
PerkinElmer UV WinLab 6.0.4.0738 / 1.61.00 Lambda 900

0
0
3350/servo 860.8/5
0
0
UV/VIS
1
1
1
RBeamAtt,SBeamAtt,150mm sphere / downward view, WB InGaAs Detector
0
0
0
0
Program
Program
3350/servo 860.8/5
3350/0.2 860.8/0.2
3350/0.2 860.8/0.2
0
9.50
 
 
 
0
 
860.8
319.2
860.8
Front
100
 
S:100 R:100
 
0
0
0
 
0
 
 
 
0
 
 
0
0
0
0
0
 
 
 
 
0
0


0
0
#HDR
-1
-1
#GR
nm
%R
1.0
0.0
1200.000000
-10.000000
91
8
49.626659
7.905164
#DATA
1200.000000	49.626659
1190.000000	47.943279
1180.000000	45.734777
1170.000000	43.165814
1160.000000	40.143670
1150.000000	36.677186
1140.000000	32.897260
1130.000000	28.824266
1120.000000	24.686497
1110.000000	20.712681
1100.000000	17.061163
1090.000000	14.007111
1080.000000	11.779268
1070.000000	10.593346
1060.000000	10.528353
1050.000000	11.546105
1040.000000	13.553617
1030.000000	16.310935
1020.000000	19.560878
1010.000000	23.005070
1000.000000	26.434988
990.000000	29.575670
980.000000	32.245254
970.000000	34.280683
960.000000	35.644005
950.000000	36.162219
940.000000	35.883117
930.000000	34.674710
920.000000	32.635886
910.000000	29.789054
900.000000	26.357084
890.000000	22.632069
880.000000	18.884220
870.000000	15.704724
860.000000	13.743568
850.000000	12.426326
840.000000	12.837164
830.000000	14.509506
820.000000	17.188782
810.000000	20.553608
800.000000	24.076036
790.000000	26.256173
780.000000	25.323075
770.000000	21.134115
760.000000	17.390455
750.000000	15.772516
740.000000	15.228114
730.000000	14.859202
720.000000	14.526850
710.000000	14.241477
700.000000	14.100252
690.000000	14.132899
680.000000	14.309919
670.000000	14.584902
660.000000	14.853493
650.000000	14.972667
640.000000	14.931857
630.000000	14.750221
620.000000	14.558834
610.000000	14.421646
600.000000	14.369467
590.000000	14.419521
580.000000	14.454395
570.000000	14.406200
560.000000	14.310864
550.000000	14.201257
540.000000	14.071950
530.000000	13.913703
520.000000	13.650552
510.000000	13.411824
500.000000	13.172934
490.000000	12.773559
480.000000	12.254667
470.000000	11.770921
460.000000	11.439368
450.000000	11.229205
440.000000	11.255827
430.000000	11.235880
420.000000	11.225126
410.000000	11.111269
400.000000	10.785810
390.000000	10.369997
380.000000	9.924848
370.000000	9.411634
360.000000	9.129104
350.000000	8.653565
340.000000	8.404661
330.000000	8.189534
320.000000	7.905164
310.000000	8.116459
300.000000	8.362121
