PE UV       SUBTECH     SPECTRUM    ASCII       PEDS        4.00        
   -1
4_TR.Sample.asc
23/04/12
12:02:51.00
23/04/12
12:02:51.00
Analyst

300.000000
1
Lambda 950
950L1311181
PerkinElmer UV WinLab 6.0.4.0738 / 1.61.00 Lambda 900

0
0
3350/servo 860.8/5
0
0
UV/VIS
1
1
1
RBeamAtt,SBeamAtt,150mm sphere / downward view, WB InGaAs Detector
0
0
0
0
Program
Program
3350/servo 860.8/5
3350/0.2 860.8/0.2
3350/0.2 860.8/0.2
0
9.50
 
 
 
0
 
860.8
319.2
860.8
Front
100
 
S:100 R:100
 
0
0
0
 
0
 
 
 
0
 
 
0
0
0
0
0
 
 
 
 
0
0


0
0
#HDR
-1
-1
#GR
nm
%R
1.0
0.0
1200.000000
-10.000000
91
8
50.899760
5.665429
#DATA
1200.000000	50.899760
1190.000000	50.115637
1180.000000	48.911004
1170.000000	47.342838
1160.000000	45.297577
1150.000000	42.778945
1140.000000	39.867550
1130.000000	36.459511
1120.000000	32.702323
1110.000000	28.704771
1100.000000	24.588317
1090.000000	20.548227
1080.000000	16.810959
1070.000000	13.691992
1060.000000	11.449128
1050.000000	10.199212
1040.000000	10.062753
1030.000000	11.021105
1020.000000	12.928291
1010.000000	15.577800
1000.000000	18.745491
990.000000	22.111853
980.000000	25.449493
970.000000	28.491961
960.000000	31.120233
950.000000	33.140527
940.000000	34.438432
930.000000	34.879592
920.000000	34.493356
910.000000	33.196293
900.000000	31.025827
890.000000	28.135548
880.000000	24.618937
870.000000	20.916007
860.000000	17.525490
850.000000	15.841344
840.000000	14.062146
830.000000	13.296954
820.000000	13.799389
810.000000	15.743405
800.000000	18.992610
790.000000	22.470838
780.000000	24.231155
770.000000	22.580386
760.000000	19.187319
750.000000	17.009843
740.000000	16.150626
730.000000	15.671092
720.000000	15.233211
710.000000	14.815069
700.000000	14.504984
690.000000	14.288726
680.000000	14.223505
670.000000	14.347257
660.000000	14.573398
650.000000	14.833650
640.000000	14.985249
630.000000	15.006157
620.000000	14.890343
610.000000	14.757058
600.000000	14.635489
590.000000	14.604339
580.000000	14.626634
570.000000	14.620302
560.000000	14.559237
550.000000	14.490863
540.000000	14.411546
530.000000	14.235963
520.000000	14.063304
510.000000	13.956033
500.000000	13.991819
490.000000	13.798551
480.000000	13.427561
470.000000	13.086561
460.000000	12.926651
450.000000	12.936545
440.000000	13.128832
430.000000	13.209179
420.000000	13.182780
410.000000	12.992633
400.000000	12.556151
390.000000	12.106954
380.000000	11.639358
370.000000	11.059934
360.000000	10.722219
350.000000	10.299075
340.000000	10.186703
330.000000	10.067840
320.000000	9.687647
310.000000	9.472700
300.000000	5.665429
