PE UV       SUBTECH     SPECTRUM    ASCII       PEDS        4.00        
   -1
6_TR.Sample.asc
23/04/12
12:07:59.00
23/04/12
12:07:59.00
Analyst

300.000000
1
Lambda 950
950L1311181
PerkinElmer UV WinLab 6.0.4.0738 / 1.61.00 Lambda 900

0
0
3350/servo 860.8/5
0
0
UV/VIS
1
1
1
RBeamAtt,SBeamAtt,150mm sphere / downward view, WB InGaAs Detector
0
0
0
0
Program
Program
3350/servo 860.8/5
3350/0.2 860.8/0.2
3350/0.2 860.8/0.2
0
9.50
 
 
 
0
 
860.8
319.2
860.8
Front
100
 
S:100 R:100
 
0
0
0
 
0
 
 
 
0
 
 
0
0
0
0
0
 
 
 
 
0
0


0
0
#HDR
-1
-1
#GR
nm
%R
1.0
0.0
1200.000000
-10.000000
91
8
46.105544
5.989533
#DATA
1200.000000	45.985383
1190.000000	46.105544
1180.000000	46.008920
1170.000000	45.589152
1160.000000	44.850013
1150.000000	43.769912
1140.000000	42.392763
1130.000000	40.643095
1120.000000	38.554085
1110.000000	36.192164
1100.000000	33.544719
1090.000000	30.700176
1080.000000	27.748884
1070.000000	24.820647
1060.000000	22.084710
1050.000000	19.676757
1040.000000	17.740816
1030.000000	16.415371
1020.000000	15.783770
1010.000000	15.829108
1000.000000	16.519825
990.000000	17.786235
980.000000	19.446686
970.000000	21.327632
960.000000	23.309709
950.000000	25.205391
940.000000	26.879778
930.000000	28.184797
920.000000	29.058298
910.000000	29.406182
900.000000	29.199931
890.000000	28.444111
880.000000	27.095557
870.000000	25.296408
860.000000	23.284061
850.000000	22.411258
840.000000	20.457393
830.000000	18.646927
820.000000	17.197984
810.000000	16.449663
800.000000	16.789694
790.000000	18.209881
780.000000	19.576177
770.000000	19.237462
760.000000	17.517001
750.000000	16.243798
740.000000	15.693927
730.000000	15.413777
720.000000	15.170930
710.000000	14.902802
700.000000	14.639067
690.000000	14.387053
680.000000	14.131744
670.000000	14.006442
660.000000	13.926807
650.000000	13.952573
640.000000	14.053937
630.000000	14.107029
620.000000	14.119147
610.000000	14.057812
600.000000	13.943815
590.000000	13.843743
580.000000	13.741493
570.000000	13.670300
560.000000	13.507735
550.000000	13.394149
540.000000	13.231681
530.000000	12.997841
520.000000	12.706694
510.000000	12.386421
500.000000	12.026755
490.000000	11.556163
480.000000	11.009064
470.000000	10.417403
460.000000	9.953132
450.000000	9.667970
440.000000	9.580661
430.000000	9.447313
420.000000	9.268861
410.000000	8.960841
400.000000	8.450716
390.000000	7.844278
380.000000	7.240539
370.000000	6.612467
360.000000	6.379928
350.000000	6.026500
340.000000	5.989533
330.000000	6.019368
320.000000	6.034361
310.000000	6.557697
300.000000	7.494616
