PE UV       SUBTECH     SPECTRUM    ASCII       PEDS        4.00        
   -1
7_TR.Sample.asc
23/04/12
12:10:30.00
23/04/12
12:10:30.00
Analyst

300.000000
1
Lambda 950
950L1311181
PerkinElmer UV WinLab 6.0.4.0738 / 1.61.00 Lambda 900

0
0
3350/servo 860.8/5
0
0
UV/VIS
1
1
1
RBeamAtt,SBeamAtt,150mm sphere / downward view, WB InGaAs Detector
0
0
0
0
Program
Program
3350/servo 860.8/5
3350/0.2 860.8/0.2
3350/0.2 860.8/0.2
0
9.50
 
 
 
0
 
860.8
319.2
860.8
Front
100
 
S:100 R:100
 
0
0
0
 
0
 
 
 
0
 
 
0
0
0
0
0
 
 
 
 
0
0


0
0
#HDR
-1
-1
#GR
nm
%R
1.0
0.0
1200.000000
-10.000000
91
8
48.635851
5.894510
#DATA
1200.000000	48.635851
1190.000000	48.221455
1180.000000	47.425010
1170.000000	46.283688
1160.000000	44.735273
1150.000000	42.780357
1140.000000	40.493587
1130.000000	37.792552
1120.000000	34.759507
1110.000000	31.522516
1100.000000	28.083201
1090.000000	24.592281
1080.000000	21.172175
1070.000000	18.051897
1060.000000	15.428461
1050.000000	13.460289
1040.000000	12.289856
1030.000000	12.012410
1020.000000	12.634718
1010.000000	14.072620
1000.000000	16.205978
990.000000	18.816850
980.000000	21.665518
970.000000	24.477551
960.000000	27.118726
950.000000	29.342499
940.000000	31.009564
930.000000	31.961987
920.000000	32.219350
910.000000	31.683501
900.000000	30.366298
890.000000	28.367675
880.000000	25.754143
870.000000	22.785095
860.000000	19.797104
850.000000	18.187759
840.000000	16.191245
830.000000	14.683714
820.000000	14.068335
810.000000	14.617459
800.000000	16.630318
790.000000	19.366930
780.000000	21.251926
770.000000	20.588776
760.000000	17.908332
750.000000	15.877572
740.000000	15.045502
730.000000	14.564656
720.000000	14.161247
710.000000	13.744097
700.000000	13.349476
690.000000	13.040133
680.000000	12.807597
670.000000	12.783798
660.000000	12.841008
650.000000	12.979454
640.000000	13.092799
630.000000	13.136145
620.000000	13.055408
610.000000	12.879643
600.000000	12.686145
590.000000	12.538478
580.000000	12.423000
570.000000	12.332466
560.000000	12.174573
550.000000	12.022142
540.000000	11.805710
530.000000	11.555690
520.000000	11.263977
510.000000	10.945626
500.000000	10.610786
490.000000	10.145230
480.000000	9.634462
470.000000	9.117699
460.000000	8.717583
450.000000	8.469996
440.000000	8.374962
430.000000	8.227515
420.000000	8.042094
410.000000	7.735490
400.000000	7.277373
390.000000	6.790758
380.000000	6.367005
370.000000	5.965812
360.000000	5.967704
350.000000	5.894510
340.000000	6.075419
330.000000	6.308505
320.000000	6.374350
310.000000	6.928281
300.000000	7.375909
