PE UV       SUBTECH     SPECTRUM    ASCII       PEDS        4.00        
   -1
8_TR.Sample.asc
23/04/12
12:12:58.00
23/04/12
12:12:58.00
Analyst

300.000000
1
Lambda 950
950L1311181
PerkinElmer UV WinLab 6.0.4.0738 / 1.61.00 Lambda 900

0
0
3350/servo 860.8/5
0
0
UV/VIS
1
1
1
RBeamAtt,SBeamAtt,150mm sphere / downward view, WB InGaAs Detector
0
0
0
0
Program
Program
3350/servo 860.8/5
3350/0.2 860.8/0.2
3350/0.2 860.8/0.2
0
9.50
 
 
 
0
 
860.8
319.2
860.8
Front
100
 
S:100 R:100
 
0
0
0
 
0
 
 
 
0
 
 
0
0
0
0
0
 
 
 
 
0
0


0
0
#HDR
-1
-1
#GR
nm
%R
1.0
0.0
1200.000000
-10.000000
91
8
49.219796
7.536943
#DATA
1200.000000	49.219796
1190.000000	47.825571
1180.000000	45.984203
1170.000000	43.811711
1160.000000	41.198285
1150.000000	38.240203
1140.000000	34.950759
1130.000000	31.366591
1120.000000	27.637783
1110.000000	23.946799
1100.000000	20.402106
1090.000000	17.210944
1080.000000	14.573862
1070.000000	12.755038
1060.000000	11.854828
1050.000000	11.929816
1040.000000	12.986284
1030.000000	14.891611
1020.000000	17.427926
1010.000000	20.381205
1000.000000	23.524164
990.000000	26.586687
980.000000	29.352966
970.000000	31.630911
960.000000	33.326916
950.000000	34.317447
940.000000	34.574375
930.000000	33.963944
920.000000	32.576732
910.000000	30.444276
900.000000	27.735165
890.000000	24.601642
880.000000	21.252698
870.000000	18.192833
860.000000	15.851674
850.000000	14.631845
840.000000	14.252996
830.000000	14.783873
820.000000	16.381784
810.000000	18.892602
800.000000	21.957860
790.000000	24.497515
780.000000	24.625100
770.000000	21.697384
760.000000	18.216551
750.000000	16.620858
740.000000	16.024384
730.000000	15.671177
720.000000	15.311657
710.000000	15.004958
700.000000	14.818129
690.000000	14.743487
680.000000	14.810032
670.000000	15.008651
660.000000	15.241569
650.000000	15.425839
640.000000	15.527166
630.000000	15.477186
620.000000	15.368384
610.000000	15.259434
600.000000	15.237617
590.000000	15.294241
580.000000	15.354129
570.000000	15.372981
560.000000	15.307240
550.000000	15.313771
540.000000	15.273007
530.000000	15.141885
520.000000	14.969163
510.000000	14.678914
500.000000	14.319984
490.000000	14.016650
480.000000	13.667230
470.000000	13.038669
460.000000	12.520791
450.000000	12.256114
440.000000	12.256221
430.000000	12.236326
420.000000	12.280783
410.000000	12.266638
400.000000	12.031315
390.000000	11.612369
380.000000	11.076590
370.000000	10.432813
360.000000	9.994305
350.000000	9.234231
340.000000	8.732170
330.000000	8.258649
320.000000	7.751062
310.000000	7.856377
300.000000	7.536943
